timestamp,TP9,AF7,AF8,TP10
1631023450733,353.3699645996094,794.1758422851562,790.5494384765625,139.8168487548828
1631023450733,852.6007080078125,797.3992919921875,799.010986328125,1122.5640869140625
1631023450733,278.02197265625,792.1611938476562,789.7435913085938,365.054931640625
1631023450733,201.46519470214844,778.05859375,783.6996459960938,207.10623168945312
1631023450733,1435.238037109375,803.040283203125,805.4578857421875,1551.2821044921875
1631023450733,935.6043701171876,796.996337890625,799.8168334960938,1224.5054931640625
1631023450733,1117.7288818359375,790.1465454101562,791.3552856445312,936.8131713867188
1631023450733,237.72894287109372,787.7289428710938,791.7582397460938,290.9157409667969
1631023450733,413.80950927734375,784.5054931640625,784.908447265625,197.8388214111328
1631023450733,1430.0,805.8607788085938,797.8021850585938,1565.78759765625
1631023450733,1205.5677490234375,791.3552856445312,787.7289428710938,1037.5457763671875
1631023450733,490.7692260742188,775.2380981445312,778.8644409179688,240.14651489257807
1631023450827,1413.4798583984375,813.113525390625,804.6520385742188,1587.94873046875
1631023450827,1379.230712890625,813.5164794921875,807.4725341796875,1554.1025390625
1631023450827,197.0329742431641,780.879150390625,798.2051391601562,168.02197265625
1631023450827,572.967041015625,782.4908447265625,792.967041015625,334.8351745605469
1631023450827,766.3735961914062,797.3992919921875,797.8021850585938,1028.6812744140625
1631023450827,1266.00732421875,805.4578857421875,798.2051391601562,1154.798583984375
1631023450827,1344.17578125,801.4285888671875,799.010986328125,1229.7435302734375
1631023450827,674.1025390625,802.6373901367188,803.040283203125,910.2197875976562
1631023450842,195.8241729736328,784.1025390625,788.5347900390625,113.62637329101562
1631023450842,571.7582397460938,801.025634765625,798.6080322265625,788.1318969726562
1631023450842,664.4322509765625,784.5054931640625,787.3259887695312,392.05126953125
1631023450858,1317.179443359375,814.3223266601562,809.4871826171875,1535.164794921875
1631023450952,410.5860900878906,796.5933837890625,791.3552856445312,556.8497924804688
1631023450952,1442.087890625,813.5164794921875,795.3846435546875,1455.3846435546875
1631023450952,761.1355590820312,799.8168334960938,788.5347900390625,485.1282043457031
1631023450952,271.97802734375,789.3406372070312,789.3406372070312,93.07691955566406
1631023450952,1430.805908203125,804.6520385742188,800.6226806640625,1396.5567626953125
1631023450952,1398.974365234375,809.084228515625,803.4432373046875,1337.7288818359375
1631023450952,222.0146484375,801.025634765625,787.3259887695312,89.85347747802734
1631023450952,1235.3846435546875,809.4871826171875,813.113525390625,1461.4285888671875
1631023450952,483.1135559082031,808.6813354492188,799.8168334960938,666.8497924804688
1631023450952,933.99267578125,797.8021850585938,780.879150390625,680.952392578125
1631023450952,856.6300659179688,796.1904907226562,787.3259887695312,589.4871826171875
1631023450952,1140.2930908203125,812.3076782226562,796.1904907226562,1389.3040771484375
1631023451081,855.8241577148438,812.7106323242188,795.7875366210938,1108.4615478515625
1631023451096,338.8644714355469,797.3992919921875,771.6116943359375,453.2966918945313
1631023451096,734.945068359375,817.5457763671875,803.040283203125,1015.7875366210938
1631023451096,185.75091552734372,796.5933837890625,788.5347900390625,199.0476226806641
1631023451096,1167.6922607421875,799.8168334960938,790.952392578125,1000.4761962890624
1631023451096,471.4285583496094,793.3699340820312,785.7142944335938,213.55311584472656
1631023451096,399.70697021484375,792.1611938476562,778.4615478515625,150.6959686279297
1631023451096,1414.6885986328125,812.3076782226562,797.8021850585938,1539.5970458984375
1631023451096,952.5274658203124,809.4871826171875,794.1758422851562,1218.05859375
1631023451096,1382.05126953125,823.5897216796875,804.2490844726562,1546.4468994140625
1631023451096,1018.2051391601562,812.3076782226562,786.5201416015625,787.7289428710938
1631023451096,277.21612548828125,796.996337890625,787.7289428710938,360.6227111816406
1631023451096,1446.923095703125,818.7545776367188,798.2051391601562,1527.5091552734375
1631023451096,1108.05859375,811.098876953125,790.1465454101562,886.8497924804688
1631023451096,338.05859375,796.996337890625,780.0732421875,116.44688415527344
1631023451096,1450.146484375,817.1428833007812,798.6080322265625,1498.09521484375
1631023451096,290.5128173828125,786.923095703125,767.1795043945312,88.24176025390625
1631023451096,1055.6776123046875,809.89013671875,790.952392578125,1309.120849609375
1631023451096,228.46153259277344,796.5933837890625,780.4761962890625,269.1575012207031
1631023451112,1234.17578125,801.4285888671875,793.7728881835938,1088.3150634765625
1631023451112,541.5384521484375,788.1318969726562,781.2820434570312,268.75457763671875
1631023451112,643.4798583984375,810.6959838867188,809.4871826171875,893.2966918945312
1631023451112,174.87179565429688,798.6080322265625,782.087890625,128.93772888183594
1631023451206,574.981689453125,807.069580078125,801.4285888671875,775.2380981445312
1631023451206,1300.2564697265625,809.084228515625,799.4139404296875,1191.4652099609375
1631023451206,171.24542236328125,799.010986328125,789.3406372070312,95.8974380493164
1631023451206,1306.7032470703125,803.4432373046875,807.4725341796875,1497.2894287109375
1631023451206,618.4981689453125,795.3846435546875,785.3113403320312,353.3699645996094
1631023451221,718.02197265625,794.1758422851562,787.7289428710938,447.2527465820313
1631023451221,1395.3480224609375,812.3076782226562,813.91943359375,1362.7105712890625
1631023451221,1363.5164794921875,803.040283203125,804.2490844726562,1285.3480224609375
1631023451221,1231.3553466796875,815.5311279296875,813.91943359375,1448.5347900390625
1631023451221,803.4432373046875,803.040283203125,804.6520385742188,547.9853515625
1631023451221,472.6373596191406,804.2490844726562,800.2197875976562,660.8058471679688
1631023451284,224.029296875,791.7582397460938,799.010986328125,67.28937530517578
1631023451284,282.05126953125,796.996337890625,801.8314819335938,374.3223571777344
1631023451284,392.05126953125,800.6226806640625,810.2930297851562,557.6557006835938
1631023451284,1441.6849365234375,816.3369750976562,813.91943359375,1484.3956298828125
1631023451284,1061.3187255859375,817.1428833007812,817.1428833007812,1317.179443359375
1631023451284,343.29669189453125,809.4871826171875,801.8314819335938,466.996337890625
1631023451284,1134.6519775390625,821.97802734375,815.1282348632812,1390.5128173828125
1631023451284,1419.5238037109375,819.96337890625,805.054931640625,1427.9853515625
1631023451284,989.1941528320312,808.2783813476562,799.8168334960938,754.6886596679688
1631023451284,890.879150390625,806.6666870117188,791.3552856445312,644.2857055664062
1631023451284,266.3370056152344,803.4432373046875,789.3406372070312,79.78022003173828
1631023451284,314.68865966796875,800.2197875976562,790.952392578125,101.13552856445312
1631023451377,1301.8681640625,817.94873046875,815.93408203125,1504.5421142578125
1631023451377,1300.6593017578125,811.90478515625,809.4871826171875,1180.5860595703125
1631023451377,695.8607788085938,793.3699340820312,801.8314819335938,429.1208801269531
1631023451377,169.23077392578125,798.2051391601562,799.010986328125,96.30036926269533
1631023451377,608.02197265625,800.6226806640625,795.7875366210938,341.28204345703125
1631023451377,572.1611938476562,806.2637329101562,811.5018310546875,794.5787353515625
1631023451377,1349.4139404296875,813.113525390625,812.7106323242188,1262.3809814453125
1631023451393,229.26739501953125,809.4871826171875,793.7728881835938,286.0805969238281
1631023451393,970.6593627929688,808.2783813476562,815.1282348632812,1230.5494384765625
1631023451393,1363.5164794921875,823.1868286132812,813.5164794921875,1536.776611328125
1631023451393,1422.7471923828125,827.2161254882812,813.113525390625,1543.6263427734375
1631023451393,395.2747192382813,792.1611938476562,796.996337890625,165.2014617919922
1631023451393,520.989013671875,799.8168334960938,790.952392578125,268.3516540527344
1631023451393,184.5421295166016,799.4139404296875,798.6080322265625,203.88278198242188
1631023451393,671.2820434570312,813.113525390625,808.2783813476562,909.8168334960938
1631023451393,856.2271118164062,825.2014770507812,806.2637329101562,1122.1611328125
1631023451393,764.3589477539062,819.5604248046875,810.2930297851562,1023.040283203125
1631023451393,1151.5750732421875,815.93408203125,803.4432373046875,977.106201171875
1631023451393,1450.5494384765625,821.97802734375,811.5018310546875,1519.853515625
1631023451393,173.6630096435547,799.8168334960938,796.1904907226562,145.45787048339844
1631023451393,432.7472534179688,797.3992919921875,793.7728881835938,192.60073852539065
1631023451393,1233.77294921875,810.6959838867188,807.069580078125,1077.8388671875
1631023451393,1097.9853515625,807.87548828125,805.4578857421875,880.4029541015625
1631023451393,1400.5860595703125,826.4102783203125,816.3369750976562,1541.208740234375
1631023451487,250.62271118164065,792.1611938476562,796.996337890625,78.57142639160156
1631023451487,1150.769287109375,822.7838745117188,812.3076782226562,1398.16845703125
1631023451487,420.2564086914063,816.3369750976562,800.2197875976562,575.3846435546875
1631023451487,885.2380981445312,789.3406372070312,795.3846435546875,633.003662109375
1631023451487,215.970703125,805.054931640625,795.3846435546875,66.0805892944336
1631023451487,329.5970764160156,807.87548828125,807.069580078125,483.5164794921875
1631023451487,785.3113403320312,795.3846435546875,799.010986328125,528.6447143554688
1631023451487,1415.4945068359375,809.89013671875,806.6666870117188,1415.091552734375
1631023451487,183.73626708984372,788.937744140625,799.8168334960938,76.15384674072266
1631023451487,1396.5567626953125,799.4139404296875,806.6666870117188,1351.83154296875
1631023451502,488.7545776367188,803.040283203125,808.2783813476562,684.981689453125
1631023451502,1242.6373291015625,809.084228515625,813.5164794921875,1463.4432373046875
1631023451518,228.05860900878903,805.8607788085938,798.2051391601562,284.8717956542969
1631023451518,357.8021850585937,798.2051391601562,792.1611938476562,126.92308044433594
1631023451518,1423.5531005859375,822.7838745117188,809.084228515625,1524.6885986328125
1631023451518,882.4176025390625,817.5457763671875,808.6813354492188,1137.069580078125
1631023451518,1070.989013671875,806.2637329101562,804.6520385742188,851.7948608398438
1631023451518,1442.893798828125,815.5311279296875,811.098876953125,1509.7802734375
1631023451518,298.5714416503906,793.7728881835938,796.996337890625,101.53845977783205
1631023451518,276.4102478027344,805.4578857421875,809.084228515625,387.6190490722656
1631023451518,1437.6556396484375,818.3516235351562,806.2637329101562,1470.2930908203125
1631023451518,969.4505615234376,815.5311279296875,815.93408203125,1240.2197265625
1631023451518,1071.794921875,818.7545776367188,815.1282348632812,1330.4761962890625
1631023451518,963.8095092773438,803.4432373046875,797.8021850585938,739.3773193359375
1631023451549,589.4871826171875,788.1318969726562,788.937744140625,330.80584716796875
1631023451565,688.6080322265625,807.87548828125,810.2930297851562,929.5604248046876
1631023451565,1290.5860595703125,803.8461303710938,804.2490844726562,1161.245361328125
1631023451565,174.87179565429688,797.3992919921875,794.5787353515625,157.54579162597656
1631023451565,184.13919067382807,803.040283203125,804.2490844726562,211.9413909912109
1631023451565,1384.871826171875,822.7838745117188,813.91943359375,1546.0439453125
1631023451565,513.7362670898438,799.8168334960938,794.5787353515625,265.9340515136719
1631023451565,1374.798583984375,817.1428833007812,817.94873046875,1540.0
1631023451565,766.7765502929688,817.1428833007812,809.084228515625,1040.3663330078125
1631023451565,1216.0439453125,811.5018310546875,810.2930297851562,1072.6007080078125
1631023451565,430.7326049804688,800.6226806640625,800.2197875976562,182.5274658203125
1631023451580,1312.3443603515625,821.1721801757812,813.113525390625,1517.4359130859375
1631023451580,590.2930297851562,820.3662719726562,804.2490844726562,815.1282348632812
1631023451596,415.4212341308594,819.1575317382812,803.4432373046875,590.2930297851562
1631023451596,1348.205078125,809.4871826171875,806.6666870117188,1255.5311279296875
1631023451596,1148.754638671875,828.4249267578125,812.3076782226562,1417.5091552734375
1631023451596,290.9157409667969,799.010986328125,794.5787353515625,396.8864440917969
1631023451596,298.974365234375,794.1758422851562,786.1171875,93.47985076904295
1631023451596,184.5421295166016,799.4139404296875,795.7875366210938,87.83882904052734
1631023451596,960.1831665039062,807.87548828125,797.8021850585938,725.2747192382812
1631023451596,504.0659484863281,806.2637329101562,806.2637329101562,711.97802734375
1631023451596,1387.6922607421875,819.5604248046875,807.069580078125,1415.8974609375
1631023451596,334.4322204589844,803.4432373046875,803.040283203125,493.1867980957031
1631023451596,1244.2490234375,818.3516235351562,815.1282348632812,1476.3370361328125
1631023451596,840.915771484375,806.6666870117188,789.3406372070312,620.5128173828125
1631023451596,1435.6409912109375,825.2014770507812,812.3076782226562,1469.4871826171875
1631023451596,213.9560394287109,797.3992919921875,798.6080322265625,72.93040466308594
1631023451596,792.967041015625,794.1758422851562,802.6373901367188,525.8241577148438
1631023451596,1077.8388671875,819.96337890625,812.7106323242188,1339.3406982421875
1631023451596,1434.4322509765625,815.1282348632812,814.3223266601562,1500.5128173828125
1631023451596,220.0,802.2344360351562,789.3406372070312,78.57142639160156
1631023451596,1391.3187255859375,814.3223266601562,813.5164794921875,1344.5787353515625
1631023451612,1214.835205078125,805.8607788085938,805.4578857421875,1047.216064453125
1631023451612,194.61538696289065,786.5201416015625,793.7728881835938,215.56776428222656
1631023451612,1414.6885986328125,823.1868286132812,812.3076782226562,1542.0146484375
1631023451612,792.967041015625,810.6959838867188,807.069580078125,1052.05126953125
1631023451612,502.4542236328125,797.8021850585938,796.1904907226562,247.8022003173828
1631023451627,893.6996459960938,813.91943359375,809.084228515625,1155.201416015625
1631023451627,1130.2197265625,811.90478515625,800.6226806640625,944.8717651367188
1631023451627,244.981689453125,801.4285888671875,796.1904907226562,297.3626403808594
1631023451627,363.8461608886719,795.7875366210938,793.3699340820312,122.0879135131836
1631023451627,425.4945068359375,793.7728881835938,789.7435913085938,178.4981689453125
1631023451627,1052.4542236328125,806.6666870117188,802.2344360351562,831.6483764648438
1631023451627,1423.9560546875,817.1428833007812,814.7252807617188,1528.7178955078125
1631023451752,280.03662109375,797.8021850585938,788.5347900390625,87.83882904052734
1631023451752,349.3406677246094,793.7728881835938,795.3846435546875,127.72893524169922
1631023451752,836.886474609375,791.7582397460938,798.2051391601562,610.4395751953125
1631023451752,1370.3663330078125,823.5897216796875,821.97802734375,1545.6409912109375
1631023451752,1331.2821044921875,806.2637329101562,810.6959838867188,1232.1611328125
1631023451752,355.3846130371094,813.5164794921875,798.2051391601562,520.989013671875
1631023451752,1058.09521484375,803.040283203125,800.6226806640625,821.97802734375
1631023451752,1418.7178955078125,815.1282348632812,809.4871826171875,1412.6739501953125
1631023451752,208.3150177001953,797.3992919921875,793.3699340820312,64.46886444091797
1631023451752,218.3882751464844,793.3699340820312,788.937744140625,83.4065933227539
1631023451752,517.7655639648438,807.87548828125,809.4871826171875,712.7838745117188
1631023451752,1390.5128173828125,807.069580078125,811.5018310546875,1326.4468994140625
1631023451752,597.94873046875,809.084228515625,812.7106323242188,827.2161254882812
1631023451752,1454.17578125,813.5164794921875,807.87548828125,1498.901123046875
1631023451752,244.1758270263672,796.5933837890625,799.8168334960938,330.4029235839844
1631023451752,324.76190185546875,804.6520385742188,794.5787353515625,402.9303894042969
1631023451752,1094.761962890625,822.3809814453125,810.6959838867188,1360.2930908203125
1631023451752,766.7765502929688,798.2051391601562,794.5787353515625,493.5897521972656
1631023451752,1282.12451171875,816.7399291992188,807.87548828125,1154.3956298828125
1631023451752,1446.5201416015625,819.5604248046875,805.8607788085938,1469.4871826171875
1631023451752,604.7985229492188,799.8168334960938,798.6080322265625,332.8205261230469
1631023451752,1269.230712890625,821.1721801757812,818.3516235351562,1475.5311279296875
1631023451752,1025.4578857421875,815.93408203125,804.2490844726562,1256.3370361328125
1631023451752,177.6923065185547,784.908447265625,798.2051391601562,76.15384674072266
1631023451752,689.4139404296875,814.7252807617188,808.6813354492188,948.4981689453124
1631023451752,672.4908447265625,790.5494384765625,798.2051391601562,397.2893676757813
1631023451752,1314.761962890625,813.91943359375,820.7692260742188,1504.13916015625
1631023451752,1184.6153564453125,821.1721801757812,807.4725341796875,1427.179443359375
1631023451752,171.24542236328125,802.2344360351562,794.5787353515625,163.1868133544922
1631023451768,945.2747192382812,808.6813354492188,793.7728881835938,712.3809814453125
1631023451784,1122.5640869140625,803.040283203125,801.4285888671875,927.94873046875
1631023451784,417.8388366699219,793.7728881835938,792.1611938476562,169.63369750976562
1631023451784,904.5787353515624,810.6959838867188,809.89013671875,1188.24169921875
1631023451784,1424.761962890625,815.5311279296875,810.2930297851562,1538.3883056640625
1631023451815,165.2014617919922,800.6226806640625,799.4139404296875,123.29669952392578
1631023451830,567.3259887695312,803.040283203125,792.5640869140625,310.25640869140625
1631023451830,183.73626708984372,797.8021850585938,800.6226806640625,181.72161865234372
1631023451830,1370.3663330078125,813.91943359375,811.90478515625,1537.9853515625
1631023451830,468.6080627441406,792.1611938476562,797.8021850585938,237.72894287109372
1631023451830,1405.82421875,817.94873046875,812.7106323242188,1552.087890625
1631023451830,1272.4542236328125,809.084228515625,803.8461303710938,1132.6373291015625
1631023451830,1184.21240234375,805.4578857421875,803.4432373046875,1038.3516845703125
1631023451830,715.6043701171875,808.2783813476562,807.4725341796875,970.2564086914062
1631023451830,206.7032928466797,795.3846435546875,797.3992919921875,246.5933990478516
1631023451830,807.4725341796875,809.084228515625,812.3076782226562,1084.6885986328125
1631023452068,550.8058471679688,798.2051391601562,793.7728881835938,299.7802124023437
1631023452068,827.2161254882812,804.6520385742188,804.6520385742188,577.3992919921875
1631023452068,1363.5164794921875,821.5750732421875,813.113525390625,1296.6300048828125
1631023452068,230.4761962890625,794.981689453125,800.6226806640625,92.27106475830078
1631023452068,683.7728881835938,819.5604248046875,805.054931640625,899.3406372070312
1631023452068,667.2527465820312,805.054931640625,801.8314819335938,387.6190490722656
1631023452068,1382.05126953125,822.7838745117188,817.94873046875,1547.2528076171875
1631023452068,180.5128173828125,801.4285888671875,793.7728881835938,132.96702575683594
1631023452068,1257.94873046875,813.5164794921875,809.084228515625,1124.5787353515625
1631023452068,555.2380981445312,817.1428833007812,810.6959838867188,758.7179565429688
1631023452068,1407.8388671875,812.3076782226562,819.1575317382812,1370.3663330078125
1631023452068,188.1685028076172,813.5164794921875,799.8168334960938,98.71794891357422
1631023452068,1281.7215576171875,821.5750732421875,822.7838745117188,1489.6336669921875
1631023452068,1355.86083984375,823.1868286132812,812.7106323242188,1533.150146484375
1631023452083,273.1867980957031,800.6226806640625,798.6080322265625,101.13552856445312
1631023452083,211.13552856445312,799.4139404296875,793.3699340820312,86.63003540039062
1631023452083,380.7692260742188,803.040283203125,810.6959838867188,544.3589477539062
1631023452083,740.1831665039062,806.2637329101562,800.2197875976562,478.6813049316406
1631023452083,1417.106201171875,815.93408203125,812.7106323242188,1430.0
1631023452083,1212.820556640625,815.93408203125,823.99267578125,1436.4468994140625
1631023452083,917.069580078125,802.2344360351562,805.054931640625,681.7582397460938
1631023452083,474.6520080566406,811.098876953125,805.8607788085938,647.5091552734375
1631023452083,1107.6556396484375,818.3516235351562,816.3369750976562,1358.6812744140625
1631023452099,1096.3736572265625,799.8168334960938,804.6520385742188,890.4761962890625
1631023452099,221.2087860107422,796.996337890625,796.5933837890625,278.4248962402344
1631023452099,281.24542236328125,811.90478515625,805.054931640625,364.24908447265625
1631023452099,1432.4176025390625,817.94873046875,813.5164794921875,1503.3333740234375
1631023452099,946.4835205078124,822.3809814453125,814.3223266601562,1197.5091552734375
1631023452099,835.2747192382812,813.91943359375,810.6959838867188,1095.5677490234375
1631023452099,334.8351745605469,801.8314819335938,794.981689453125,132.1611785888672
1631023452099,391.6483459472656,785.7142944335938,792.967041015625,172.05128479003906
1631023452115,316.30035400390625,814.7252807617188,803.040283203125,443.2234497070313
1631023452115,1423.5531005859375,820.7692260742188,807.87548828125,1473.91943359375
1631023452130,1375.6043701171875,825.6043701171875,811.90478515625,1514.21240234375
1631023452130,734.1392211914062,816.3369750976562,808.2783813476562,986.7765502929688
1631023452130,1168.09521484375,819.96337890625,801.025634765625,996.8497924804688
1631023452130,475.4578857421875,803.8461303710938,791.7582397460938,241.75823974609372
1631023452130,201.86813354492188,793.7728881835938,792.5640869140625,166.00732421875
1631023452130,1230.952392578125,815.93408203125,797.8021850585938,1087.106201171875
1631023452130,547.1795043945312,796.996337890625,788.937744140625,305.018310546875
1631023452130,1398.5714111328125,824.7985229492188,813.91943359375,1514.6153564453125
1631023452130,195.42124938964844,803.8461303710938,796.1904907226562,213.9560394287109
1631023452146,1297.4359130859375,810.2930297851562,802.2344360351562,1191.8681640625
1631023452146,645.8974609375,805.8607788085938,803.4432373046875,868.3150024414062
1631023452146,1312.7471923828125,815.5311279296875,809.4871826171875,1483.186767578125
1631023452193,742.1978149414062,802.2344360351562,793.3699340820312,491.5751037597656
1631023452193,227.25274658203125,806.2637329101562,789.7435913085938,114.43223571777344
1631023452193,564.908447265625,810.6959838867188,805.054931640625,756.3003540039062
1631023452193,1290.5860595703125,824.3956298828125,812.7106323242188,1440.0732421875
1631023452193,647.912109375,796.1904907226562,792.1611938476562,402.1245422363281
1631023452193,191.7948760986328,792.5640869140625,793.3699340820312,129.74359130859375
1631023452193,473.8461608886719,809.4871826171875,796.5933837890625,626.5567626953125
1631023452208,1196.3004150390625,814.7252807617188,804.6520385742188,1371.5750732421875
1631023452208,1400.5860595703125,820.7692260742188,809.084228515625,1358.6812744140625
1631023452208,836.4835205078125,803.040283203125,804.6520385742188,628.1685180664062
1631023452208,263.9194030761719,792.5640869140625,798.2051391601562,155.12820434570312
1631023452224,1147.94873046875,813.113525390625,806.6666870117188,961.3919677734376
1631023452224,504.4688720703125,810.2930297851562,804.2490844726562,744.6153564453125
1631023452224,919.89013671875,805.8607788085938,804.2490844726562,831.2454223632812
1631023452224,500.03662109375,803.4432373046875,805.4578857421875,733.7362670898438
1631023452224,853.003662109375,811.90478515625,801.025634765625,791.7582397460938
1631023452224,848.1685180664062,811.90478515625,811.098876953125,788.1318969726562
1631023452224,921.098876953125,815.5311279296875,805.4578857421875,916.2637329101562
1631023452224,554.4322509765625,802.2344360351562,802.2344360351562,703.5164794921875
1631023452224,1091.94140625,809.4871826171875,808.2783813476562,891.6849975585938
1631023452224,339.6703186035156,805.054931640625,803.8461303710938,405.75091552734375
1631023452224,490.7692260742188,811.5018310546875,802.2344360351562,685.3846435546875
1631023452240,864.6886596679688,803.4432373046875,813.113525390625,903.7728881835938
1631023452255,771.2088012695312,810.2930297851562,804.2490844726562,874.3589477539062
1631023452255,1084.6885986328125,813.5164794921875,806.6666870117188,902.5640869140624
1631023452255,469.4139099121094,796.996337890625,805.4578857421875,726.886474609375
1631023452255,1149.96337890625,819.96337890625,807.069580078125,985.1648559570312
1631023452255,642.6740112304688,792.5640869140625,807.87548828125,742.1978149414062
1631023452255,608.02197265625,801.8314819335938,796.1904907226562,726.886474609375
1631023452255,1004.1025390625,808.6813354492188,805.8607788085938,865.091552734375
1631023452255,483.5164794921875,807.4725341796875,801.4285888671875,732.5274658203125
1631023452255,1160.842529296875,821.97802734375,803.8461303710938,979.5238037109376
1631023452255,1035.128173828125,807.4725341796875,805.4578857421875,888.05859375
1631023452255,823.99267578125,817.5457763671875,807.87548828125,886.4468994140625
1631023452255,1158.4249267578125,808.6813354492188,811.90478515625,975.4945068359376
1631023452271,470.21978759765625,799.010986328125,801.025634765625,714.3956298828125
1631023452271,788.1318969726562,803.040283203125,801.025634765625,766.3735961914062
1631023452271,667.6557006835938,803.4432373046875,798.6080322265625,801.4285888671875
1631023452271,1106.0439453125,810.2930297851562,810.6959838867188,956.5567626953124
1631023452271,619.7069702148438,796.5933837890625,795.3846435546875,791.7582397460938
1631023452271,487.94873046875,805.4578857421875,792.967041015625,692.6373901367188
1631023452271,1126.996337890625,808.2783813476562,802.6373901367188,911.025634765625
1631023452271,492.3809509277344,792.5640869140625,802.2344360351562,707.94873046875
1631023452271,1080.2564697265625,810.6959838867188,806.2637329101562,948.901123046875
1631023452271,704.3223266601562,805.054931640625,803.040283203125,744.2124633789062
1631023452271,1106.0439453125,808.6813354492188,795.3846435546875,888.8644409179688
1631023452271,711.5750732421875,803.040283203125,811.5018310546875,855.018310546875
1631023452271,756.3003540039062,809.89013671875,788.937744140625,754.2857055664062
1631023452287,1025.054931640625,812.7106323242188,797.8021850585938,933.5897216796876
1631023452287,995.6410522460938,806.2637329101562,801.4285888671875,929.1575317382812
1631023452287,830.03662109375,809.084228515625,792.1611938476562,767.1795043945312
1631023452287,615.6776733398438,796.996337890625,801.8314819335938,793.3699340820312
1631023452287,1142.7105712890625,813.91943359375,801.4285888671875,919.89013671875
1631023452287,496.8132019042969,800.2197875976562,792.5640869140625,689.8168334960938
1631023452302,1129.81689453125,805.054931640625,801.8314819335938,925.93408203125
1631023452302,416.2271118164063,803.8461303710938,802.2344360351562,672.4908447265625
1631023452302,514.945068359375,811.098876953125,800.6226806640625,697.069580078125
1631023452302,556.4468994140625,809.084228515625,792.5640869140625,675.7142944335938
1631023452302,897.7289428710938,803.8461303710938,809.084228515625,878.3883056640625
1631023452302,1113.2967529296875,808.2783813476562,801.025634765625,912.2344360351562
1631023452302,651.94140625,813.113525390625,799.4139404296875,670.879150390625
1631023452302,1156.4102783203125,809.084228515625,804.2490844726562,936.4102783203124
1631023452302,928.7545776367188,807.87548828125,801.025634765625,800.2197875976562
1631023452302,560.879150390625,801.8314819335938,795.3846435546875,731.3186645507812
1631023452302,918.2783813476562,802.2344360351562,806.2637329101562,898.1318969726562
1631023452302,956.959716796875,801.8314819335938,803.8461303710938,822.7838745117188
1631023452302,1007.7289428710938,815.93408203125,798.2051391601562,803.040283203125
1631023452302,1145.5311279296875,804.6520385742188,809.084228515625,936.00732421875
1631023452302,533.8828125,807.069580078125,799.010986328125,726.08056640625
1631023452302,799.010986328125,807.4725341796875,809.084228515625,843.3333129882812
1631023452302,870.7326049804688,794.981689453125,801.4285888671875,798.2051391601562
1631023452302,537.912109375,796.996337890625,793.3699340820312,674.1025390625
1631023452302,602.3809814453125,798.6080322265625,802.2344360351562,677.3259887695312
1631023452333,745.4212646484375,802.6373901367188,785.3113403320312,734.945068359375
1631023452333,680.5494384765625,808.6813354492188,793.3699340820312,690.2197875976562
1631023452333,653.5531005859375,795.3846435546875,808.6813354492188,810.2930297851562
1631023452333,1084.2857666015625,821.1721801757812,798.2051391601562,891.2820434570312
1631023452333,1142.7105712890625,813.91943359375,785.7142944335938,851.3919677734375
1631023452333,1047.6190185546875,807.069580078125,795.3846435546875,906.996337890625
1631023452333,992.8204956054688,820.3662719726562,790.952392578125,830.8424682617188
1631023452333,482.30767822265625,801.4285888671875,794.5787353515625,681.3552856445312
1631023452333,518.974365234375,805.8607788085938,801.8314819335938,673.6996459960938
1631023452458,483.9194030761719,804.6520385742188,800.2197875976562,715.6043701171875
1631023452458,999.6703491210938,811.90478515625,803.040283203125,901.7582397460938
1631023452458,593.91943359375,809.89013671875,798.6080322265625,760.7326049804688
1631023452474,657.1795043945312,817.5457763671875,791.3552856445312,780.879150390625
1631023452474,767.1795043945312,796.1904907226562,801.025634765625,762.3442993164062
1631023452474,1103.223388671875,802.2344360351562,805.054931640625,897.3259887695312
1631023452474,499.2307739257813,804.6520385742188,794.1758422851562,687.8021850585938
1631023452474,691.025634765625,810.2930297851562,799.8168334960938,782.893798828125
1631023452474,777.6557006835938,804.6520385742188,799.8168334960938,785.3113403320312
1631023452474,1064.945068359375,816.3369750976562,797.8021850585938,927.1428833007812
1631023452474,1143.91943359375,808.2783813476562,802.2344360351562,902.1611938476562
1631023452474,1046.00732421875,809.89013671875,801.4285888671875,924.7252807617188
1631023452536,618.09521484375,794.981689453125,809.084228515625,739.3773193359375
1631023452536,1140.2930908203125,812.7106323242188,805.054931640625,923.5164794921876
1631023452536,1099.5970458984375,817.5457763671875,796.996337890625,921.5018310546876
1631023452536,567.3259887695312,807.87548828125,798.2051391601562,746.2271118164062
1631023452536,861.8681030273438,807.87548828125,801.8314819335938,823.1868286132812
1631023452536,535.4945068359375,808.2783813476562,798.6080322265625,721.6483764648438
1631023452536,921.90478515625,803.4432373046875,800.6226806640625,822.3809814453125
1631023452552,930.3662719726562,809.89013671875,802.2344360351562,890.4761962890625
1631023452552,1160.842529296875,804.2490844726562,807.87548828125,941.6483764648438
1631023452552,875.5677490234375,811.098876953125,803.4432373046875,875.970703125
1631023452552,555.2380981445312,823.99267578125,817.94873046875,751.4652099609375
1631023452552,854.6153564453125,823.99267578125,824.3956298828125,876.3735961914062
1631023452552,635.018310546875,811.098876953125,809.084228515625,720.4395751953125
1631023452552,543.9560546875,806.2637329101562,806.2637329101562,765.1648559570312
1631023452552,999.2673950195312,799.8168334960938,808.6813354492188,840.5128173828125
1631023452568,714.3956298828125,832.8571166992188,819.96337890625,790.1465454101562
1631023452568,1172.5274658203125,829.6337280273438,832.8571166992188,975.8974609375
1631023452568,515.3479614257812,817.94873046875,816.3369750976562,758.7179565429688
1631023452568,1068.974365234375,830.4395751953125,825.6043701171875,909.4139404296876
1631023452568,1073.4066162109375,844.1392211914062,829.6337280273438,904.981689453125
1631023452568,1156.813232421875,830.03662109375,829.2307739257812,963.003662109375
1631023452568,706.7399291992188,832.8571166992188,831.6483764648438,799.4139404296875
1631023452568,575.7875366210938,815.93408203125,832.8571166992188,794.5787353515625
1631023452568,889.2673950195312,826.8131713867188,833.2600708007812,903.7728881835938
1631023452615,502.05126953125,819.5604248046875,810.2930297851562,744.6153564453125
1631023452615,539.5238037109375,817.1428833007812,807.4725341796875,753.8828125
1631023452615,1189.853515625,822.3809814453125,804.2490844726562,926.3369750976562
1631023452615,811.90478515625,828.8278198242188,810.6959838867188,813.5164794921875
1631023452615,839.3040161132812,807.87548828125,809.4871826171875,805.054931640625
1631023452615,656.7765502929688,808.6813354492188,810.6959838867188,832.05126953125
1631023452615,1137.87548828125,830.03662109375,815.5311279296875,929.96337890625
1631023452615,1113.2967529296875,821.5750732421875,806.6666870117188,955.3479614257812
1631023452615,707.5457763671875,817.5457763671875,818.7545776367188,853.8095092773438
1631023452615,1083.076904296875,820.7692260742188,821.5750732421875,948.4981689453124
1631023452630,955.3479614257812,819.96337890625,806.6666870117188,841.7216186523438
1631023452630,955.3479614257812,821.97802734375,807.069580078125,828.8278198242188
1631023452630,1020.6226806640624,819.5604248046875,810.6959838867188,915.8607788085938
1631023452630,781.2820434570312,819.1575317382812,815.1282348632812,862.6740112304688
1631023452630,1203.5531005859375,819.1575317382812,813.5164794921875,938.02197265625
1631023452630,501.2454223632813,817.5457763671875,816.7399291992188,763.9560546875
1631023452630,1248.6812744140625,820.3662719726562,811.098876953125,944.06591796875
1631023452630,1147.142822265625,826.8131713867188,817.94873046875,913.4432373046876
1631023452630,654.7619018554688,818.7545776367188,804.2490844726562,811.5018310546875
1631023452630,572.5640869140625,806.6666870117188,811.098876953125,738.5714111328125
1631023452630,1168.4981689453125,830.8424682617188,819.5604248046875,962.6007080078124
1631023452630,1054.06591796875,811.5018310546875,817.5457763671875,925.1282348632812
1631023452630,586.6666870117188,809.4871826171875,811.098876953125,789.3406372070312
1631023452630,736.5567626953125,819.96337890625,815.1282348632812,791.7582397460938
1631023452677,843.3333129882812,837.6923217773438,806.6666870117188,890.4761962890625
1631023452677,524.6153564453125,811.90478515625,801.8314819335938,743.4066162109375
1631023452677,418.2417602539063,834.4688720703125,794.1758422851562,734.5421142578125
1631023452677,1168.901123046875,815.1282348632812,821.97802734375,960.1831665039062
1631023452693,978.7179565429688,802.2344360351562,820.3662719726562,867.106201171875
1631023452693,971.8681030273438,809.89013671875,808.6813354492188,861.8681030273438
1631023452693,543.1502075195312,800.2197875976562,815.93408203125,765.1648559570312
1631023452693,523.4066162109375,812.7106323242188,817.5457763671875,786.5201416015625
1631023452693,361.025634765625,827.6190185546875,805.054931640625,742.6007080078125
1631023452693,1205.164794921875,817.94873046875,814.3223266601562,946.08056640625
1631023452693,946.886474609375,817.94873046875,825.6043701171875,911.8314819335938
1631023452693,523.8095092773438,812.7106323242188,804.2490844726562,738.974365234375
1631023452708,544.3589477539062,809.89013671875,801.4285888671875,755.091552734375
1631023452708,711.1721801757812,839.3040161132812,803.4432373046875,854.2124633789062
1631023452708,360.6227111816406,821.1721801757812,800.2197875976562,727.2893676757812
1631023452708,1122.967041015625,805.054931640625,813.91943359375,958.1685180664062
1631023452708,999.2673950195312,804.6520385742188,807.87548828125,888.4615478515625
1631023452708,706.3369750976562,822.3809814453125,803.8461303710938,850.989013671875
1631023452724,628.974365234375,822.3809814453125,804.2490844726562,809.084228515625
1631023452724,834.4688720703125,811.5018310546875,808.6813354492188,814.3223266601562
1631023452724,1120.952392578125,803.8461303710938,803.4432373046875,911.8314819335938
1631023452724,662.0146484375,813.91943359375,810.6959838867188,850.1831665039062
1631023452724,362.23443603515625,807.87548828125,798.6080322265625,723.2600708007812
1631023452724,1157.6190185546875,816.3369750976562,807.069580078125,933.99267578125
1631023452724,727.2893676757812,823.99267578125,791.7582397460938,788.937744140625
1631023452724,452.4908447265625,810.6959838867188,809.084228515625,724.8717651367188
1631023452724,1141.5018310546875,809.89013671875,811.5018310546875,953.7362670898438
1631023452724,1133.4432373046875,801.4285888671875,814.7252807617188,963.8095092773438
1631023452724,1028.6812744140625,816.3369750976562,799.8168334960938,930.7692260742188
1631023452724,1087.106201171875,822.7838745117188,812.7106323242188,944.4688720703124
1631023452724,567.3259887695312,809.89013671875,800.2197875976562,796.996337890625
1631023452724,427.9120788574219,827.6190185546875,794.5787353515625,721.6483764648438
1631023452724,632.1978149414062,794.1758422851562,799.4139404296875,771.2088012695312
1631023452724,1077.032958984375,800.2197875976562,811.098876953125,901.3552856445312
1631023452724,1181.3919677734375,819.5604248046875,808.2783813476562,928.7545776367188
1631023452740,804.2490844726562,815.1282348632812,799.8168334960938,867.106201171875
1631023452740,437.5824279785156,806.2637329101562,797.8021850585938,749.047607421875
1631023452740,1137.87548828125,796.5933837890625,803.040283203125,933.5897216796876
1631023452740,562.893798828125,796.996337890625,803.8461303710938,746.6300659179688
1631023452740,938.8278198242188,792.967041015625,805.054931640625,842.5274658203125
1631023452740,892.4908447265625,804.6520385742188,803.040283203125,898.5347900390625
1631023452740,970.6593627929688,824.3956298828125,799.8168334960938,917.87548828125
1631023452740,827.2161254882812,812.3076782226562,799.4139404296875,824.3956298828125
1631023452740,486.3370056152344,821.1721801757812,800.2197875976562,761.1355590820312
1631023452740,497.2161254882813,817.1428833007812,798.2051391601562,772.0146484375
1631023452740,412.6007385253906,799.010986328125,802.6373901367188,704.7252807617188
1631023452740,1135.4578857421875,826.4102783203125,800.6226806640625,931.5750732421876
1631023452740,462.1611633300781,811.90478515625,800.6226806640625,729.3040161132812
1631023452740,807.069580078125,805.4578857421875,805.4578857421875,810.2930297851562
1631023452755,443.6263732910156,806.6666870117188,804.6520385742188,734.5421142578125
1631023452755,715.2014770507812,806.6666870117188,804.2490844726562,750.6593627929688
1631023452755,1121.3553466796875,811.90478515625,799.8168334960938,875.5677490234375
1631023452755,813.5164794921875,826.00732421875,805.4578857421875,850.1831665039062
1631023452755,1128.205078125,820.7692260742188,796.1904907226562,919.4871826171876
1631023452755,629.7802124023438,803.4432373046875,796.996337890625,728.4981689453125
1631023452755,1189.853515625,821.97802734375,808.6813354492188,936.8131713867188
1631023452755,453.69964599609375,803.4432373046875,803.040283203125,715.6043701171875
1631023452755,1159.6336669921875,805.4578857421875,804.6520385742188,924.7252807617188
1631023452755,565.7142944335938,790.952392578125,804.2490844726562,750.2564086914062
1631023452755,771.6116943359375,818.7545776367188,805.8607788085938,817.1428833007812
1631023452755,956.5567626953124,805.054931640625,795.7875366210938,848.1685180664062
1631023452755,1065.3480224609375,817.1428833007812,799.010986328125,845.3479614257812
1631023452771,1189.047607421875,839.3040161132812,801.025634765625,919.4871826171876
1631023452771,838.09521484375,801.8314819335938,807.87548828125,768.7911987304688
1631023452771,510.1098937988281,828.8278198242188,796.1904907226562,691.025634765625
1631023452771,1227.3260498046875,815.5311279296875,806.6666870117188,893.6996459960938
1631023452771,1186.6300048828125,821.1721801757812,801.8314819335938,879.5970458984375
1631023452771,483.9194030761719,789.3406372070312,811.5018310546875,726.4835205078125
1631023452771,1174.945068359375,798.2051391601562,809.084228515625,936.00732421875
1631023452771,811.5018310546875,810.6959838867188,802.6373901367188,773.6264038085938
1631023452771,761.1355590820312,808.6813354492188,808.6813354492188,831.2454223632812
1631023452771,708.3516235351562,806.2637329101562,801.4285888671875,792.1611938476562
1631023452786,972.6740112304688,827.6190185546875,803.8461303710938,790.5494384765625
1631023452786,951.7216186523438,807.4725341796875,801.4285888671875,872.7472534179688
1631023452786,601.1721801757812,813.113525390625,799.4139404296875,710.7692260742188
1631023452786,537.106201171875,835.2747192382812,787.3259887695312,696.6666870117188
1631023452786,518.5714111328125,809.084228515625,809.4871826171875,707.5457763671875
1631023452786,869.5238037109375,834.8717651367188,795.3846435546875,828.4249267578125
1631023452786,1243.4432373046875,807.4725341796875,804.6520385742188,929.1575317382812
1631023452786,516.1538696289062,800.6226806640625,809.084228515625,695.4578857421875
1631023452786,658.7911987304688,819.5604248046875,806.2637329101562,762.7472534179688
1631023452786,572.5640869140625,807.87548828125,801.4285888671875,753.076904296875
1631023452786,1211.6116943359375,821.1721801757812,807.069580078125,902.1611938476562
1631023452786,888.05859375,817.94873046875,809.084228515625,788.1318969726562
1631023452786,664.029296875,800.6226806640625,803.8461303710938,730.915771484375
1631023452786,1037.94873046875,790.1465454101562,811.098876953125,847.7655639648438
1631023452786,1092.7471923828125,822.3809814453125,804.2490844726562,894.908447265625
1631023452786,616.08056640625,802.2344360351562,811.90478515625,770.8058471679688
1631023452786,1048.02197265625,801.025634765625,812.3076782226562,879.1941528320312
1631023452786,653.1502075195312,796.5933837890625,801.8314819335938,719.2307739257812
1631023452786,1233.77294921875,798.6080322265625,817.94873046875,901.7582397460938
1631023452786,565.7142944335938,797.3992919921875,797.3992919921875,732.12451171875
1631023452802,783.2966918945312,796.996337890625,797.3992919921875,739.7802124023438
1631023452802,678.1318969726562,801.8314819335938,806.6666870117188,797.3992919921875
1631023452802,1137.87548828125,809.084228515625,799.4139404296875,867.106201171875
1631023452802,1064.945068359375,804.2490844726562,803.8461303710938,895.7142944335938
1631023452802,1163.6629638671875,811.5018310546875,801.025634765625,865.8974609375
1631023452802,527.8388061523438,784.1025390625,808.6813354492188,716.8131713867188
1631023452802,1159.6336669921875,793.7728881835938,814.3223266601562,923.113525390625
1631023452802,1168.901123046875,793.7728881835938,810.6959838867188,867.5091552734375
1631023452802,832.05126953125,811.90478515625,796.1904907226562,770.0
1631023452802,767.1795043945312,801.8314819335938,795.7875366210938,734.5421142578125
1631023452802,964.2124633789062,838.09521484375,801.4285888671875,868.7179565429688
1631023452802,733.7362670898438,815.93408203125,805.054931640625,794.5787353515625
1631023452802,1035.93408203125,804.2490844726562,804.6520385742188,828.4249267578125
1631023452802,823.1868286132812,823.1868286132812,809.4871826171875,821.97802734375
1631023452802,1211.6116943359375,794.5787353515625,816.3369750976562,920.2930297851562
1631023452802,509.70697021484375,811.90478515625,792.967041015625,684.981689453125
1631023452802,1233.77294921875,808.2783813476562,807.4725341796875,922.3076782226562
1631023452818,1089.5238037109375,801.025634765625,806.6666870117188,843.3333129882812
1631023452818,536.7033081054688,806.2637329101562,803.8461303710938,714.3956298828125
1631023452818,1154.3956298828125,801.8314819335938,801.025634765625,897.3259887695312
1631023452818,543.1502075195312,808.2783813476562,790.1465454101562,716.00732421875
1631023452818,1064.5421142578125,809.4871826171875,805.8607788085938,908.6080322265624
1631023452818,533.4798583984375,812.7106323242188,797.8021850585938,715.6043701171875
1631023452818,680.1465454101562,807.4725341796875,804.2490844726562,789.7435913085938
1631023452818,590.2930297851562,799.4139404296875,803.040283203125,775.6410522460938
1631023452818,693.040283203125,795.3846435546875,801.4285888671875,726.4835205078125
1631023452818,901.3552856445312,801.025634765625,794.1758422851562,798.6080322265625
1631023452927,572.1611938476562,795.7875366210938,805.8607788085938,737.7655639648438
1631023452927,840.5128173828125,811.90478515625,804.6520385742188,867.5091552734375
1631023452927,944.06591796875,827.6190185546875,800.6226806640625,880.8058471679688
1631023452927,945.6776733398438,809.4871826171875,809.084228515625,832.8571166992188
1631023452927,943.6630249023438,840.5128173828125,798.6080322265625,833.2600708007812
1631023452927,1099.194091796875,836.4835205078125,801.8314819335938,909.010986328125
1631023452927,589.084228515625,811.098876953125,802.2344360351562,738.5714111328125
1631023452927,503.6629943847656,816.7399291992188,795.7875366210938,757.106201171875
1631023452927,510.9157409667969,806.6666870117188,801.025634765625,761.5384521484375
1631023452927,1154.798583984375,821.1721801757812,806.6666870117188,914.2490844726562
1631023452943,1179.3773193359375,815.5311279296875,798.2051391601562,902.5640869140624
1631023452943,1116.1171875,826.8131713867188,801.025634765625,915.054931640625
1631023452943,581.8314819335938,790.5494384765625,803.040283203125,742.1978149414062
1631023452943,994.029296875,801.4285888671875,807.069580078125,899.7435913085938
1631023452943,996.4468994140624,808.2783813476562,805.8607788085938,860.2564086914062
1631023452943,441.2088012695313,790.1465454101562,808.2783813476562,730.10986328125
1631023452943,940.4395751953124,821.1721801757812,796.996337890625,813.5164794921875
1631023452943,772.0146484375,827.2161254882812,797.8021850585938,832.8571166992188
1631023452943,521.7948608398438,817.1428833007812,798.6080322265625,730.5128173828125
1631023452958,433.9560546875,792.5640869140625,799.8168334960938,713.5897216796875
1631023452974,1029.89013671875,810.2930297851562,801.025634765625,892.087890625
1631023452974,448.05859375,803.8461303710938,797.8021850585938,719.6337280273438
1631023452974,1079.047607421875,833.2600708007812,792.967041015625,892.4908447265625
1631023452974,748.2417602539062,820.7692260742188,795.7875366210938,819.1575317382812
1631023452974,642.2710571289062,773.2234497070312,804.6520385742188,767.1795043945312
1631023452974,997.2527465820312,804.6520385742188,796.1904907226562,842.12451171875
1631023452974,683.7728881835938,809.4871826171875,794.981689453125,795.7875366210938
1631023452989,701.90478515625,807.4725341796875,796.996337890625,761.5384521484375
1631023452989,570.5494384765625,801.8314819335938,803.040283203125,779.2673950195312
1631023452989,440.8058471679688,805.8607788085938,799.010986328125,712.7838745117188
1631023452989,997.6557006835938,809.084228515625,801.4285888671875,894.5054931640625
1631023452989,645.091552734375,799.010986328125,802.6373901367188,805.054931640625
1631023452989,1019.8168334960938,796.1904907226562,802.6373901367188,868.3150024414062
1631023452989,1020.6226806640624,825.2014770507812,794.5787353515625,847.3626098632812
1631023452989,686.996337890625,817.1428833007812,793.7728881835938,743.8095092773438
1631023452989,392.05126953125,821.97802734375,795.7875366210938,699.084228515625
1631023453101,946.4835205078124,814.7252807617188,809.89013671875,893.2966918945312
1631023453101,1048.02197265625,855.8241577148438,786.5201416015625,869.120849609375
1631023453101,514.5421142578125,818.7545776367188,799.4139404296875,699.4871826171875
1631023453101,495.6044006347656,806.6666870117188,805.4578857421875,761.5384521484375
1631023453101,1108.4615478515625,786.1171875,808.2783813476562,897.3259887695312
1631023453101,752.2710571289062,796.1904907226562,798.6080322265625,778.05859375
1631023453101,856.6300659179688,781.2820434570312,808.2783813476562,794.5787353515625
1631023453101,455.3113403320313,788.937744140625,801.4285888671875,717.6190185546875
1631023453117,1138.6812744140625,787.3259887695312,814.3223266601562,914.6520385742188
1631023453117,909.4139404296876,812.3076782226562,808.6813354492188,883.6264038085938
1631023453117,484.7252807617188,818.7545776367188,796.5933837890625,741.7948608398438
1631023453117,998.4615478515624,831.2454223632812,795.3846435546875,888.8644409179688
1631023453164,912.6373901367188,796.5933837890625,801.4285888671875,813.113525390625
1631023453164,468.6080627441406,794.981689453125,808.6813354492188,753.076904296875
1631023453180,958.974365234375,794.5787353515625,814.3223266601562,849.7802124023438
1631023453180,965.018310546875,828.02197265625,807.4725341796875,842.930419921875
1631023453180,489.96337890625,763.5531005859375,820.7692260742188,765.1648559570312
1631023453180,1056.08056640625,824.7985229492188,803.040283203125,898.937744140625
1631023453180,647.106201171875,790.5494384765625,806.2637329101562,748.2417602539062
1631023453180,1139.89013671875,805.4578857421875,811.098876953125,930.7692260742188
1631023453180,799.4139404296875,788.937744140625,816.7399291992188,850.5860595703125
1631023453180,587.4725341796875,801.4285888671875,807.4725341796875,747.4359130859375
1631023453180,842.930419921875,785.7142944335938,818.3516235351562,882.4176025390625
1631023453226,1103.223388671875,816.7399291992188,807.069580078125,916.2637329101562
1631023453226,707.94873046875,819.1575317382812,806.6666870117188,813.5164794921875
1631023453226,474.24908447265625,801.8314819335938,803.040283203125,715.2014770507812
1631023453226,1100.0,791.3552856445312,817.5457763671875,885.2380981445312
1631023453226,748.6447143554688,786.5201416015625,815.1282348632812,779.6703491210938
1631023453226,682.5640869140625,788.1318969726562,805.054931640625,767.5823974609375
1631023453226,450.0732727050781,814.3223266601562,802.6373901367188,718.4249267578125
1631023453242,1138.6812744140625,793.3699340820312,810.6959838867188,937.6190185546876
1631023453242,483.5164794921875,814.7252807617188,800.6226806640625,723.6630249023438
1631023453242,736.1538696289062,802.2344360351562,807.4725341796875,830.8424682617188
1631023453242,1077.8388671875,792.5640869140625,811.5018310546875,881.6116943359375
1631023453242,688.2051391601562,800.6226806640625,800.6226806640625,802.2344360351562
1631023453258,1131.4285888671875,812.3076782226562,817.94873046875,890.4761962890625
1631023453258,1133.040283203125,805.054931640625,809.4871826171875,892.087890625
1631023453258,875.970703125,802.2344360351562,805.054931640625,786.923095703125
1631023453258,517.3626098632812,792.5640869140625,803.8461303710938,714.3956298828125
1631023453258,539.120849609375,803.8461303710938,804.6520385742188,714.3956298828125
1631023453258,988.7911987304688,815.5311279296875,807.069580078125,894.5054931640625
1631023453258,1098.791259765625,805.054931640625,807.4725341796875,910.6226806640624
1631023453258,839.3040161132812,795.7875366210938,806.6666870117188,796.996337890625
1631023453258,667.6557006835938,790.1465454101562,812.3076782226562,799.4139404296875
1631023453258,591.90478515625,797.8021850585938,807.87548828125,774.4322509765625
1631023453258,796.1904907226562,801.4285888671875,805.054931640625,787.3259887695312
1631023453258,514.5421142578125,807.069580078125,802.2344360351562,711.97802734375
1631023453258,1057.2894287109375,805.054931640625,820.7692260742188,909.4139404296876
1631023453258,1133.84619140625,815.5311279296875,806.2637329101562,888.8644409179688
1631023453273,640.6593627929688,807.87548828125,800.2197875976562,749.8534545898438
1631023453273,882.8204956054688,809.4871826171875,801.8314819335938,860.2564086914062
1631023453273,598.3516235351562,806.2637329101562,799.8168334960938,729.3040161132812
1631023453273,996.8497924804688,804.2490844726562,797.8021850585938,838.4981689453125
1631023453273,545.970703125,814.3223266601562,805.054931640625,757.912109375
1631023453273,1130.2197265625,803.8461303710938,795.7875366210938,894.908447265625
1631023453273,1142.3077392578125,805.8607788085938,809.4871826171875,902.967041015625
1631023453273,540.3296508789062,807.069580078125,802.6373901367188,747.4359130859375
1631023453273,939.6337280273438,804.2490844726562,810.6959838867188,819.1575317382812
1631023453273,933.1868286132812,809.89013671875,804.6520385742188,875.970703125
1631023453336,1006.5201416015624,816.3369750976562,786.1171875,839.3040161132812
1631023453336,1075.82421875,819.1575317382812,793.3699340820312,906.5933837890624
1631023453336,963.4066162109376,811.90478515625,794.981689453125,807.4725341796875
1631023453336,827.6190185546875,811.90478515625,802.2344360351562,830.03662109375
1631023453336,490.7692260742188,809.89013671875,796.996337890625,704.7252807617188
1631023453336,1076.22705078125,817.1428833007812,793.3699340820312,898.5347900390625
1631023453336,1079.047607421875,817.1428833007812,789.7435913085938,894.908447265625
1631023453336,451.2820434570313,808.6813354492188,784.1025390625,695.4578857421875
1631023453336,722.8571166992188,807.069580078125,787.3259887695312,738.974365234375
1631023453336,476.6666564941406,807.4725341796875,791.3552856445312,699.89013671875
1631023453336,604.3956298828125,805.054931640625,796.1904907226562,719.2307739257812
1631023453336,752.2710571289062,815.5311279296875,790.1465454101562,799.8168334960938
1631023453336,704.3223266601562,809.89013671875,790.1465454101562,803.040283203125
1631023453336,681.3552856445312,809.084228515625,792.5640869140625,792.1611938476562
1631023453336,1057.2894287109375,814.3223266601562,788.5347900390625,857.4359130859375
1631023453336,1127.3992919921875,818.7545776367188,800.2197875976562,888.05859375
1631023453336,641.062255859375,812.7106323242188,784.1025390625,716.4102783203125
1631023453351,1126.996337890625,815.5311279296875,800.6226806640625,874.7619018554688
1631023453351,658.7911987304688,817.94873046875,803.8461303710938,775.2380981445312
1631023453351,760.3296508789062,803.040283203125,792.5640869140625,760.3296508789062
1631023453351,498.02197265625,810.2930297851562,797.3992919921875,698.2783813476562
1631023453351,1082.6739501953125,813.113525390625,789.3406372070312,869.120849609375
1631023453351,498.4248962402344,807.4725341796875,802.2344360351562,724.8717651367188
1631023453398,559.2673950195312,808.2783813476562,789.7435913085938,706.7399291992188
1631023453398,941.6483764648438,804.6520385742188,794.1758422851562,860.6593627929688
1631023453398,556.8497924804688,808.6813354492188,796.1904907226562,714.7985229492188
1631023453398,1144.7252197265625,810.2930297851562,799.8168334960938,892.087890625
1631023453398,578.2051391601562,805.8607788085938,789.3406372070312,758.3150024414062
1631023453398,867.912109375,809.4871826171875,808.2783813476562,774.029296875
1631023453398,1129.010986328125,811.5018310546875,800.6226806640625,890.0732421875
1631023453398,1003.2966918945312,807.069580078125,796.1904907226562,893.2966918945312
1631023453398,601.5750732421875,804.2490844726562,799.8168334960938,757.912109375
1631023453398,516.1538696289062,803.4432373046875,796.996337890625,687.8021850585938
1631023453398,817.5457763671875,809.4871826171875,795.7875366210938,765.1648559570312
1631023453398,892.087890625,813.5164794921875,799.8168334960938,793.7728881835938
1631023453554,480.6959838867188,782.4908447265625,799.4139404296875,736.959716796875
1631023453554,499.6336975097656,788.937744140625,811.098876953125,719.6337280273438
1631023453554,670.879150390625,778.4615478515625,806.2637329101562,751.8681030273438
1631023453554,497.6190490722656,778.05859375,800.6226806640625,730.10986328125
1631023453554,1063.3333740234375,789.3406372070312,808.2783813476562,875.5677490234375
1631023453554,1016.1904907226562,782.4908447265625,810.2930297851562,846.1538696289062
1631023453554,1096.3736572265625,788.1318969726562,811.098876953125,929.1575317382812
1631023453554,725.6776733398438,788.5347900390625,810.2930297851562,761.5384521484375
1631023453554,616.4835205078125,796.996337890625,805.054931640625,750.6593627929688
1631023453554,547.9853515625,807.87548828125,799.4139404296875,744.2124633789062
1631023453554,781.2820434570312,780.4761962890625,806.2637329101562,843.3333129882812
1631023453554,1117.3260498046875,809.084228515625,803.8461303710938,894.5054931640625
1631023453554,1102.820556640625,784.5054931640625,810.2930297851562,916.6666870117188
1631023453554,979.120849609375,812.7106323242188,808.2783813476562,840.5128173828125
1631023453554,1124.17578125,815.5311279296875,807.87548828125,907.8021850585938
1631023453554,897.7289428710938,812.7106323242188,807.87548828125,862.2710571289062
1631023453554,938.4249267578124,804.6520385742188,804.6520385742188,812.3076782226562
1631023453554,756.3003540039062,785.3113403320312,807.4725341796875,830.8424682617188
1631023453570,799.4139404296875,802.2344360351562,811.098876953125,791.7582397460938
1631023453570,952.5274658203124,807.4725341796875,804.6520385742188,891.2820434570312
1631023453570,1109.6702880859375,806.6666870117188,810.6959838867188,903.3699340820312
1631023453570,841.7216186523438,799.4139404296875,797.8021850585938,792.1611938476562
1631023453570,1133.040283203125,810.6959838867188,804.6520385742188,898.1318969726562
1631023453570,598.7545776367188,805.4578857421875,806.2637329101562,779.6703491210938
1631023453570,521.7948608398438,794.5787353515625,796.5933837890625,716.4102783203125
1631023453570,566.5201416015625,797.3992919921875,797.8021850585938,765.970703125
1631023453570,1046.4102783203125,811.90478515625,802.2344360351562,916.6666870117188
1631023453570,1114.1025390625,809.084228515625,803.040283203125,909.010986328125
1631023453570,642.2710571289062,803.8461303710938,808.2783813476562,805.8607788085938
1631023453570,987.1795043945312,807.4725341796875,810.2930297851562,906.1904907226562
1631023453570,1081.4652099609375,801.025634765625,819.5604248046875,888.05859375
1631023453570,850.5860595703125,811.098876953125,807.87548828125,839.3040161132812
1631023453570,594.3223266601562,802.6373901367188,808.6813354492188,719.2307739257812
1631023453570,1075.82421875,797.8021850585938,823.1868286132812,928.7545776367188
1631023453570,510.1098937988281,806.2637329101562,800.6226806640625,725.2747192382812
1631023453570,748.6447143554688,802.2344360351562,805.8607788085938,761.1355590820312
1631023453570,709.1575317382812,797.8021850585938,813.91943359375,813.113525390625
1631023453570,485.5311279296875,796.5933837890625,806.6666870117188,723.6630249023438
1631023453570,512.930419921875,802.6373901367188,807.069580078125,720.03662109375
1631023453586,1141.5018310546875,813.113525390625,803.4432373046875,906.1904907226562
1631023453586,597.5457763671875,808.6813354492188,801.8314819335938,728.09521484375
1631023453586,519.3773193359375,813.113525390625,801.8314819335938,730.915771484375
1631023453586,940.4395751953124,808.2783813476562,801.4285888671875,820.7692260742188
1631023453586,559.2673950195312,802.6373901367188,798.6080322265625,714.7985229492188
1631023453586,936.8131713867188,812.3076782226562,803.8461303710938,880.0
1631023453586,894.5054931640625,804.2490844726562,800.6226806640625,793.7728881835938
1631023453586,572.967041015625,809.4871826171875,800.2197875976562,753.076904296875
1631023453601,840.915771484375,815.1282348632812,803.8461303710938,840.915771484375
1631023453648,767.1795043945312,812.3076782226562,802.6373901367188,820.7692260742188
1631023453648,517.3626098632812,807.069580078125,799.4139404296875,718.8278198242188
1631023453648,722.05126953125,807.4725341796875,798.2051391601562,810.6959838867188
1631023453648,1127.3992919921875,819.5604248046875,807.069580078125,906.996337890625
1631023453648,728.4981689453125,806.6666870117188,800.6226806640625,750.6593627929688
1631023453648,799.8168334960938,807.4725341796875,806.2637329101562,838.4981689453125
1631023453648,980.3296508789062,811.90478515625,801.8314819335938,819.96337890625
1631023453648,510.1098937988281,802.2344360351562,805.4578857421875,734.1392211914062
1631023453648,1110.879150390625,806.6666870117188,812.3076782226562,920.2930297851562
1631023453648,1062.930419921875,812.3076782226562,800.2197875976562,859.4505615234375
1631023453648,496.8132019042969,796.5933837890625,802.6373901367188,715.6043701171875
1631023453648,668.4615478515625,794.981689453125,801.025634765625,724.4688720703125
1631023453648,1115.7142333984375,818.3516235351562,803.4432373046875,911.8314819335938
1631023453648,1016.5933837890624,803.8461303710938,807.87548828125,843.7362670898438
1631023453648,626.5567626953125,799.8168334960938,802.2344360351562,725.6776733398438
1631023453664,1065.7509765625,812.3076782226562,805.054931640625,901.7582397460938
1631023453664,553.2234497070312,803.4432373046875,796.996337890625,717.6190185546875
1631023453664,629.7802124023438,810.6959838867188,801.8314819335938,770.8058471679688
1631023453664,1017.8021850585938,808.6813354492188,804.2490844726562,892.4908447265625
1631023453664,522.1978149414062,809.89013671875,798.2051391601562,708.3516235351562
1631023453664,1145.93408203125,811.098876953125,807.87548828125,880.8058471679688
1631023453664,861.062255859375,805.054931640625,801.8314819335938,790.952392578125
1631023453664,1129.81689453125,805.4578857421875,804.2490844726562,891.2820434570312
1631023453664,1088.7178955078125,810.2930297851562,805.4578857421875,915.054931640625
1631023453664,1084.6885986328125,809.084228515625,805.054931640625,876.3735961914062
1631023453664,670.4761962890625,804.2490844726562,807.069580078125,788.1318969726562
1631023453664,756.7033081054688,799.010986328125,801.025634765625,763.5531005859375
1631023453664,508.9010925292969,796.5933837890625,805.054931640625,709.1575317382812
1631023453664,832.8571166992188,808.2783813476562,806.2637329101562,776.0439453125
1631023453679,972.2710571289062,815.1282348632812,804.6520385742188,839.7069702148438
1631023453679,858.6447143554688,807.4725341796875,805.8607788085938,859.047607421875
1631023453679,613.2600708007812,804.2490844726562,805.4578857421875,735.3479614257812
1631023453679,800.2197875976562,813.113525390625,808.6813354492188,843.3333129882812
1631023453679,501.6483459472656,805.8607788085938,807.4725341796875,734.5421142578125
1631023453679,592.7106323242188,806.2637329101562,805.054931640625,735.7509155273438
1631023453679,528.6447143554688,799.8168334960938,811.5018310546875,748.6447143554688
1631023453679,1127.3992919921875,820.7692260742188,803.8461303710938,913.4432373046876
1631023453679,1097.9853515625,813.113525390625,813.91943359375,905.7875366210938
1631023453679,999.2673950195312,809.084228515625,799.010986328125,893.6996459960938
1631023453679,933.1868286132812,809.084228515625,806.2637329101562,828.02197265625
1631023453679,1138.6812744140625,807.87548828125,813.5164794921875,912.6373901367188
1631023453679,603.1868286132812,804.6520385742188,795.3846435546875,759.120849609375
1631023453679,1174.13916015625,801.8314819335938,805.054931640625,911.8314819335938
1631023453679,911.025634765625,799.4139404296875,805.4578857421875,797.8021850585938
1631023453679,566.923095703125,810.2930297851562,805.4578857421875,759.120849609375
1631023453679,931.5750732421876,810.2930297851562,811.098876953125,880.4029541015625
1631023453679,565.7142944335938,805.4578857421875,803.4432373046875,716.4102783203125
1631023453695,995.2380981445312,807.4725341796875,810.2930297851562,843.3333129882812
1631023453773,690.2197875976562,805.8607788085938,807.069580078125,799.010986328125
1631023453773,1050.03662109375,817.94873046875,807.87548828125,846.1538696289062
1631023453773,494.7985229492188,802.6373901367188,798.6080322265625,690.6226806640625
1631023453773,1105.6409912109375,822.7838745117188,810.6959838867188,902.5640869140624
1631023453773,703.5164794921875,811.5018310546875,808.6813354492188,737.3626098632812
1631023453773,1060.5128173828125,816.3369750976562,809.084228515625,896.923095703125
1631023453773,1058.901123046875,816.3369750976562,806.2637329101562,857.8388061523438
1631023453773,775.2380981445312,812.3076782226562,811.098876953125,821.1721801757812
1631023453773,508.9010925292969,806.6666870117188,813.113525390625,719.2307739257812
1631023453773,479.8901062011719,804.6520385742188,808.6813354492188,702.7106323242188
1631023453773,660.4029541015625,807.4725341796875,809.4871826171875,742.1978149414062
1631023453773,733.3333129882812,808.6813354492188,803.8461303710938,751.062255859375
1631023453820,1105.238037109375,805.8607788085938,809.89013671875,892.893798828125
1631023453820,794.981689453125,812.7106323242188,801.4285888671875,740.1831665039062
1631023453820,826.8131713867188,808.2783813476562,801.4285888671875,778.05859375
1631023453820,599.5604248046875,810.2930297851562,797.8021850585938,775.6410522460938
1631023453820,494.3955993652344,807.87548828125,798.6080322265625,692.6373901367188
1631023453820,999.2673950195312,808.2783813476562,809.89013671875,901.3552856445312
1631023453820,516.5567626953125,804.6520385742188,799.4139404296875,703.113525390625
1631023453820,941.6483764648438,818.7545776367188,809.89013671875,877.1795043945312
1631023453836,1048.827880859375,808.6813354492188,802.6373901367188,882.0146484375
1631023453836,668.8644409179688,804.6520385742188,799.010986328125,767.5823974609375
1631023453882,469.010986328125,809.4871826171875,809.4871826171875,697.87548828125
1631023453882,900.5494384765625,815.5311279296875,817.5457763671875,876.3735961914062
1631023453882,523.003662109375,804.6520385742188,805.4578857421875,705.5311279296875
1631023453882,534.6886596679688,809.084228515625,810.6959838867188,749.8534545898438
1631023453882,529.8534545898438,810.6959838867188,807.87548828125,686.5933837890625
1631023453882,819.1575317382812,822.3809814453125,820.7692260742188,819.1575317382812
1631023453882,1088.7178955078125,815.1282348632812,805.054931640625,886.4468994140625
1631023453882,843.3333129882812,809.4871826171875,801.4285888671875,783.6996459960938
1631023453882,1100.805908203125,817.5457763671875,817.5457763671875,899.7435913085938
1631023453882,891.2820434570312,819.96337890625,809.4871826171875,794.1758422851562
1631023453898,1075.4212646484375,831.6483764648438,833.6630249023438,865.8974609375
1631023453898,901.3552856445312,823.5897216796875,826.8131713867188,765.5677490234375
1631023454070,696.2637329101562,833.6630249023438,846.1538696289062,732.930419921875
1631023454070,859.047607421875,838.4981689453125,860.2564086914062,699.084228515625
1631023454070,617.6923217773438,842.12451171875,865.8974609375,682.5640869140625
1631023454070,399.3040161132813,829.2307739257812,842.12451171875,632.6007080078125
1631023454070,894.1025390625,846.1538696289062,857.4359130859375,707.94873046875
1631023454070,488.7545776367188,825.2014770507812,867.106201171875,585.8607788085938
1631023454070,986.7765502929688,839.7069702148438,855.8241577148438,784.908447265625
1631023454070,332.8205261230469,830.4395751953125,869.120849609375,565.7142944335938
1631023454070,354.5787658691406,836.886474609375,846.959716796875,576.1904907226562
1631023454070,949.3040161132812,849.7802124023438,863.076904296875,762.3442993164062
1631023454070,554.029296875,834.4688720703125,853.4066162109375,609.6337280273438
1631023454085,536.3003540039062,819.96337890625,832.8571166992188,653.1502075195312
1631023454087,599.5604248046875,846.959716796875,848.1685180664062,682.967041015625
1631023454088,958.974365234375,844.1392211914062,854.6153564453125,775.2380981445312
1631023454089,948.4981689453124,842.5274658203125,853.8095092773438,737.7655639648438
1631023454102,635.018310546875,834.4688720703125,849.7802124023438,652.7472534179688
1631023454103,403.3333435058594,823.5897216796875,841.7216186523438,610.8424682617188
1631023454104,578.6080322265625,831.2454223632812,837.2893676757812,703.5164794921875
1631023454105,497.2161254882813,804.2490844726562,800.2197875976562,691.8314819335938
1631023454105,1148.754638671875,809.89013671875,790.1465454101562,911.025634765625
1631023454105,995.2380981445312,804.2490844726562,794.981689453125,896.923095703125
1631023454105,801.025634765625,807.87548828125,805.8607788085938,764.7619018554688
1631023454105,582.6373901367188,802.6373901367188,797.8021850585938,764.3589477539062
1631023454105,1084.2857666015625,815.5311279296875,808.2783813476562,871.94140625
1631023454105,574.5787353515625,797.3992919921875,783.2966918945312,736.959716796875
1631023454105,981.94140625,798.6080322265625,790.5494384765625,847.3626098632812
1631023454105,898.937744140625,805.4578857421875,783.6996459960938,814.7252807617188
1631023454105,1190.2564697265625,797.3992919921875,792.967041015625,945.6776733398438
1631023454105,588.2783813476562,799.8168334960938,786.923095703125,784.908447265625
1631023454105,972.2710571289062,800.6226806640625,788.1318969726562,912.6373901367188
1631023454105,972.2710571289062,840.915771484375,836.886474609375,828.4249267578125
1631023454105,448.8644714355469,815.5311279296875,819.96337890625,654.3589477539062
1631023454105,980.7326049804688,819.1575317382812,812.7106323242188,867.5091552734375
1631023454105,578.6080322265625,817.94873046875,817.94873046875,738.1685180664062
1631023454105,725.6776733398438,817.5457763671875,823.5897216796875,703.5164794921875
1631023454105,1029.89013671875,832.05126953125,828.4249267578125,808.6813354492188
1631023454120,665.2380981445312,788.937744140625,782.893798828125,783.2966918945312
1631023454120,1174.5421142578125,794.1758422851562,786.5201416015625,958.1685180664062
1631023454120,1004.1025390625,788.937744140625,786.1171875,877.9853515625
1631023454120,932.3809814453124,796.996337890625,784.1025390625,914.6520385742188
1631023454120,641.8681030273438,792.967041015625,780.879150390625,753.076904296875
1631023454120,599.96337890625,791.7582397460938,779.2673950195312,789.7435913085938
1631023454136,1157.216064453125,793.7728881835938,779.2673950195312,944.8717651367188
1631023454136,772.0146484375,793.7728881835938,790.1465454101562,793.7728881835938
1631023454136,1081.062255859375,790.5494384765625,784.1025390625,890.4761962890625
1631023454136,1095.164794921875,805.8607788085938,793.3699340820312,959.7802124023438
1631023454136,547.1795043945312,788.1318969726562,778.05859375,766.7765502929688
1631023454136,714.3956298828125,801.025634765625,786.923095703125,847.3626098632812
1631023454136,833.2600708007812,792.1611938476562,771.2088012695312,876.3735961914062
1631023454136,523.8095092773438,790.952392578125,786.5201416015625,750.2564086914062
1631023454136,782.4908447265625,797.8021850585938,782.4908447265625,869.9267578125
1631023454136,1110.0732421875,798.2051391601562,787.7289428710938,908.2051391601562
1631023454136,736.959716796875,785.3113403320312,779.6703491210938,793.3699340820312
1631023454136,696.6666870117188,787.3259887695312,773.2234497070312,781.2820434570312
1631023454136,877.9853515625,792.967041015625,787.7289428710938,903.7728881835938
1631023454136,573.7728881835938,788.937744140625,784.5054931640625,790.5494384765625
1631023454136,1167.6922607421875,796.996337890625,787.3259887695312,967.4359130859376
1631023454136,1044.798583984375,788.5347900390625,781.6849975585938,889.6703491210938
1631023454136,557.2527465820312,791.3552856445312,768.7911987304688,773.6264038085938
1631023454136,1132.6373291015625,801.025634765625,786.923095703125,964.2124633789062
1631023454198,1007.3259887695312,805.8607788085938,793.3699340820312,918.6813354492188
1631023454198,549.1941528320312,800.2197875976562,786.1171875,736.5567626953125
1631023454198,552.0146484375,807.4725341796875,791.7582397460938,740.5860595703125
1631023454198,631.7948608398438,801.4285888671875,792.1611938476562,794.5787353515625
1631023454198,1142.7105712890625,809.4871826171875,798.2051391601562,926.7399291992188
1631023454198,880.0,807.87548828125,795.7875366210938,822.3809814453125
1631023454198,682.967041015625,801.4285888671875,788.937744140625,831.6483764648438
1631023454198,850.1831665039062,799.4139404296875,783.2966918945312,811.5018310546875
1631023454198,547.9853515625,793.7728881835938,791.3552856445312,749.047607421875
1631023454198,1056.4835205078125,804.2490844726562,785.7142944335938,942.05126953125
1631023454198,1133.84619140625,800.2197875976562,785.7142944335938,923.113525390625
1631023454198,818.7545776367188,795.7875366210938,788.1318969726562,807.87548828125
1631023454214,1151.97802734375,808.2783813476562,800.2197875976562,930.7692260742188
1631023454214,597.5457763671875,794.5787353515625,799.8168334960938,735.3479614257812
1631023454214,1127.80224609375,807.87548828125,809.89013671875,923.113525390625
1631023454214,567.7289428710938,791.7582397460938,796.1904907226562,752.6740112304688
1631023454214,493.99267578125,820.7692260742188,802.2344360351562,738.1685180664062
1631023454214,960.989013671875,803.040283203125,798.2051391601562,899.7435913085938
1631023454214,889.2673950195312,808.6813354492188,801.025634765625,877.9853515625
1631023454214,955.7509155273438,781.2820434570312,808.6813354492188,844.1392211914062
1631023454214,579.8168334960938,788.1318969726562,802.2344360351562,731.7216186523438
1631023454214,925.93408203125,808.6813354492188,805.054931640625,836.08056640625
1631023454214,585.054931640625,806.2637329101562,798.6080322265625,780.4761962890625
1631023454214,1120.146484375,802.2344360351562,788.937744140625,923.91943359375
1631023454277,1094.761962890625,806.2637329101562,799.8168334960938,923.91943359375
1631023454277,776.4468994140625,807.069580078125,806.6666870117188,854.2124633789062
1631023454277,1100.0,801.025634765625,806.2637329101562,933.1868286132812
1631023454277,692.6373901367188,799.010986328125,802.2344360351562,747.032958984375
1631023454277,1028.6812744140625,796.5933837890625,800.2197875976562,860.2564086914062
1631023454277,637.4359130859375,803.8461303710938,794.5787353515625,736.959716796875
1631023454277,838.4981689453125,834.06591796875,800.6226806640625,871.5384521484375
1631023454277,503.6629943847656,800.2197875976562,798.6080322265625,724.06591796875
1631023454277,1110.879150390625,826.8131713867188,799.8168334960938,923.91943359375
1631023454277,976.3003540039062,813.113525390625,795.3846435546875,839.7069702148438
1631023454277,494.7985229492188,805.054931640625,798.6080322265625,728.901123046875
1631023454277,751.8681030273438,805.8607788085938,796.1904907226562,827.6190185546875
1631023454323,1051.6483154296875,801.025634765625,798.2051391601562,879.5970458984375
1631023454323,492.3809509277344,806.6666870117188,799.8168334960938,697.069580078125
1631023454323,1065.7509765625,808.6813354492188,808.2783813476562,936.8131713867188
1631023454323,721.6483764648438,797.8021850585938,797.8021850585938,765.5677490234375
1631023454323,633.4066162109375,810.6959838867188,796.5933837890625,781.2820434570312
1631023454323,1096.3736572265625,811.90478515625,805.4578857421875,910.2197875976562
1631023454323,495.2014770507813,794.5787353515625,797.3992919921875,705.5311279296875
1631023454323,1093.9560546875,817.94873046875,798.6080322265625,885.2380981445312
1631023454323,688.6080322265625,799.8168334960938,803.040283203125,805.8607788085938
1631023454323,803.4432373046875,812.7106323242188,800.6226806640625,776.4468994140625
1631023454323,1016.1904907226562,816.7399291992188,793.3699340820312,900.952392578125
1631023454323,767.9853515625,807.069580078125,800.2197875976562,773.6264038085938
1631023454339,556.4468994140625,807.069580078125,797.8021850585938,743.4066162109375
1631023454339,545.970703125,803.040283203125,796.1904907226562,706.7399291992188
1631023454339,954.1392211914062,815.1282348632812,809.084228515625,885.6410522460938
1631023454339,892.4908447265625,808.6813354492188,800.6226806640625,801.8314819335938
1631023454339,507.69232177734375,806.6666870117188,795.7875366210938,709.96337890625
1631023454339,1129.010986328125,815.1282348632812,805.8607788085938,905.3846435546876
1631023454339,1104.4322509765625,813.5164794921875,794.981689453125,891.6849975585938
1631023454339,592.3076782226562,807.4725341796875,803.8461303710938,761.1355590820312
1631023454339,563.6996459960938,804.6520385742188,800.6226806640625,710.7692260742188
1631023454339,843.7362670898438,805.8607788085938,793.7728881835938,782.4908447265625
1631023454339,588.6813354492188,805.8607788085938,797.3992919921875,764.7619018554688
1631023454339,975.4945068359376,815.5311279296875,797.8021850585938,887.6557006835938
1631023454402,1120.952392578125,815.5311279296875,802.2344360351562,918.2783813476562
1631023454402,627.7655639648438,804.6520385742188,798.2051391601562,730.915771484375
1631023454402,1100.805908203125,812.3076782226562,805.054931640625,915.4578857421876
1631023454402,897.3259887695312,810.6959838867188,801.8314819335938,872.3442993164062
1631023454402,921.098876953125,813.5164794921875,803.040283203125,808.6813354492188
1631023454402,854.2124633789062,821.5750732421875,809.084228515625,865.8974609375
1631023454402,583.8461303710938,805.4578857421875,799.010986328125,716.8131713867188
1631023454402,979.9267578125,808.6813354492188,792.5640869140625,833.2600708007812
1631023454402,530.6593627929688,810.2930297851562,799.8168334960938,743.4066162109375
1631023454402,1114.908447265625,814.3223266601562,805.4578857421875,911.025634765625
1631023454402,508.4981689453125,804.6520385742188,805.8607788085938,735.7509155273438
1631023454402,799.4139404296875,809.89013671875,806.2637329101562,848.974365234375
1631023454433,695.4578857421875,801.025634765625,796.1904907226562,742.1978149414062
1631023454433,511.72161865234375,799.010986328125,798.2051391601562,713.5897216796875
1631023454433,498.02197265625,801.4285888671875,806.2637329101562,689.4139404296875
1631023454433,1054.871826171875,812.3076782226562,809.4871826171875,858.2417602539062
1631023454433,749.4505615234375,805.8607788085938,803.4432373046875,816.3369750976562
1631023454433,1075.4212646484375,811.90478515625,808.6813354492188,929.1575317382812
1631023454433,702.7106323242188,808.2783813476562,809.4871826171875,805.054931640625
1631023454433,768.7911987304688,805.054931640625,799.8168334960938,763.9560546875
1631023454433,1026.6666259765625,809.4871826171875,801.4285888671875,852.6007080078125
1631023454433,1082.2711181640625,811.098876953125,804.2490844726562,880.0
1631023454433,723.2600708007812,808.6813354492188,805.054931640625,744.6153564453125
1631023454433,1090.7325439453125,806.6666870117188,808.2783813476562,906.5933837890624
1631023454464,515.7509155273438,804.2490844726562,798.2051391601562,706.3369750976562
1631023454480,666.4468994140625,810.6959838867188,796.5933837890625,786.923095703125
1631023454480,521.3919677734375,802.6373901367188,799.4139404296875,704.7252807617188
1631023454480,578.6080322265625,807.4725341796875,803.4432373046875,757.912109375
1631023454480,1076.6300048828125,804.6520385742188,805.054931640625,885.6410522460938
1631023454480,1103.223388671875,815.1282348632812,799.010986328125,888.8644409179688
1631023454480,1038.3516845703125,813.113525390625,803.4432373046875,909.010986328125
1631023454480,512.12451171875,805.4578857421875,799.010986328125,692.6373901367188
1631023454480,622.12451171875,812.3076782226562,797.3992919921875,759.120849609375
1631023454480,773.6264038085938,799.010986328125,797.8021850585938,767.9853515625
1631023454480,823.5897216796875,805.054931640625,795.3846435546875,774.8351440429688
1631023454480,999.6703491210938,816.3369750976562,799.4139404296875,895.7142944335938
1631023454527,583.8461303710938,803.4432373046875,799.010986328125,705.5311279296875
1631023454527,928.7545776367188,803.040283203125,799.4139404296875,795.7875366210938
1631023454527,525.018310546875,814.3223266601562,802.2344360351562,733.7362670898438
1631023454527,1100.4029541015625,806.6666870117188,798.2051391601562,898.1318969726562
1631023454527,924.3223266601562,817.94873046875,804.2490844726562,858.6447143554688
1631023454527,882.4176025390625,799.010986328125,803.8461303710938,804.2490844726562
1631023454527,845.7509155273438,813.5164794921875,801.8314819335938,866.3003540039062
1631023454527,934.3956298828124,810.2930297851562,796.1904907226562,869.9267578125
1631023454527,563.2966918945312,801.8314819335938,800.6226806640625,705.93408203125
1631023454527,1097.5823974609375,812.3076782226562,803.040283203125,921.90478515625
1631023454527,1142.3077392578125,818.3516235351562,801.4285888671875,891.2820434570312
1631023454527,560.879150390625,809.89013671875,803.4432373046875,735.7509155273438
1631023454558,488.3516540527344,805.4578857421875,803.8461303710938,705.1282348632812
1631023454558,712.7838745117188,805.4578857421875,806.6666870117188,744.2124633789062
1631023454558,743.8095092773438,808.2783813476562,812.3076782226562,820.3662719726562
1631023454558,643.076904296875,806.2637329101562,800.2197875976562,724.06591796875
1631023454558,985.5677490234376,813.113525390625,801.4285888671875,836.4835205078125
1631023454558,784.5054931640625,815.1282348632812,805.054931640625,836.886474609375
1631023454558,1089.120849609375,813.91943359375,805.054931640625,905.7875366210938
1631023454558,1037.5457763671875,814.3223266601562,804.2490844726562,850.5860595703125
1631023454558,1080.6593017578125,811.5018310546875,806.6666870117188,911.025634765625
1631023454573,492.3809509277344,805.8607788085938,804.6520385742188,716.4102783203125
1631023454573,935.2014770507812,808.2783813476562,806.6666870117188,828.4249267578125
1631023454730,504.8717956542969,801.8314819335938,803.040283203125,710.7692260742188
1631023454730,812.7106323242188,804.6520385742188,801.025634765625,794.5787353515625
1631023454730,682.1611938476562,811.5018310546875,811.5018310546875,796.5933837890625
1631023454730,606.00732421875,815.93408203125,797.3992919921875,762.3442993164062
1631023454730,1072.19775390625,814.3223266601562,812.7106323242188,914.2490844726562
1631023454730,1077.032958984375,810.6959838867188,810.2930297851562,875.1648559570312
1631023454730,492.3809509277344,808.2783813476562,805.8607788085938,709.96337890625
1631023454730,514.945068359375,810.2930297851562,797.8021850585938,710.3662719726562
1631023454730,1112.893798828125,807.87548828125,807.87548828125,896.5201416015625
1631023454730,746.6300659179688,807.87548828125,803.8461303710938,757.5091552734375
1631023454730,1073.8095703125,809.89013671875,810.6959838867188,921.90478515625
1631023454730,712.3809814453125,806.6666870117188,804.6520385742188,811.5018310546875
1631023454761,911.8314819335938,815.93408203125,799.010986328125,884.4322509765625
1631023454761,551.6116943359375,813.5164794921875,797.8021850585938,751.4652099609375
1631023454761,1094.3590087890625,810.6959838867188,795.3846435546875,898.1318969726562
1631023454761,1120.146484375,811.90478515625,799.010986328125,908.2051391601562
1631023454776,1091.94140625,812.3076782226562,801.8314819335938,895.3113403320312
1631023454776,942.05126953125,815.1282348632812,796.1904907226562,886.0439453125
1631023454776,982.7472534179688,821.1721801757812,800.2197875976562,886.4468994140625
1631023454776,579.4139404296875,812.7106323242188,796.5933837890625,759.5238037109375
1631023454776,827.6190185546875,812.7106323242188,800.2197875976562,788.5347900390625
1631023454776,520.1831665039062,815.93408203125,800.2197875976562,700.2930297851562
1631023454792,1117.3260498046875,811.5018310546875,805.8607788085938,928.7545776367188
1631023454792,699.084228515625,804.6520385742188,799.010986328125,750.6593627929688
1631023454792,1106.4468994140625,815.1282348632812,801.8314819335938,922.3076782226562
1631023454792,1039.157470703125,810.2930297851562,796.5933837890625,854.6153564453125
1631023454792,524.2124633789062,811.098876953125,797.3992919921875,720.03662109375
1631023454792,786.1171875,810.2930297851562,800.6226806640625,841.3186645507812
1631023454792,500.4395751953125,803.040283203125,803.040283203125,733.7362670898438
1631023454792,869.5238037109375,814.3223266601562,804.2490844726562,875.1648559570312
1631023454792,813.5164794921875,814.3223266601562,802.6373901367188,862.2710571289062
1631023454792,1113.2967529296875,822.7838745117188,803.8461303710938,927.5457763671876
1631023454792,963.8095092773438,806.6666870117188,802.6373901367188,836.08056640625
1631023454792,990.0,816.7399291992188,805.4578857421875,844.1392211914062
1631023454792,661.2088012695312,812.3076782226562,799.4139404296875,732.930419921875
1631023454792,614.06591796875,803.040283203125,801.4285888671875,728.901123046875
1631023454808,577.3992919921875,802.6373901367188,796.996337890625,722.05126953125
1631023454808,494.3955993652344,806.6666870117188,803.040283203125,724.06591796875
1631023454808,712.3809814453125,805.4578857421875,799.4139404296875,829.2307739257812
1631023454808,532.2710571289062,809.89013671875,799.8168334960938,742.6007080078125
1631023454808,912.2344360351562,801.8314819335938,795.3846435546875,804.6520385742188
1631023454823,954.945068359375,813.91943359375,807.4725341796875,900.5494384765625
1631023454823,1099.194091796875,815.1282348632812,813.113525390625,901.7582397460938
1631023454823,613.6630249023438,805.8607788085938,809.89013671875,780.0732421875
1631023454823,662.8204956054688,811.90478515625,803.040283203125,798.2051391601562
1631023454823,994.029296875,808.6813354492188,804.6520385742188,913.040283203125
1631023454823,739.7802124023438,806.2637329101562,804.2490844726562,755.8974609375
1631023454823,1097.9853515625,817.5457763671875,810.2930297851562,902.1611938476562
1631023454823,794.1758422851562,813.5164794921875,810.6959838867188,784.5054931640625
1631023454823,495.6044006347656,804.2490844726562,803.040283203125,707.94873046875
1631023454823,505.6776428222656,804.2490844726562,803.040283203125,705.1282348632812
1631023454823,579.010986328125,808.2783813476562,806.2637329101562,774.8351440429688
1631023454823,1088.7178955078125,807.87548828125,800.2197875976562,905.7875366210938
1631023454823,508.4981689453125,808.6813354492188,810.2930297851562,713.1868286132812
1631023454823,1048.4249267578125,813.113525390625,811.5018310546875,923.5164794921876
1631023454823,1053.2601318359375,813.5164794921875,805.054931640625,867.106201171875
1631023454823,1058.901123046875,807.4725341796875,801.8314819335938,921.90478515625
1631023454823,806.2637329101562,803.8461303710938,803.8461303710938,782.087890625
1631023454870,612.4542236328125,816.3369750976562,805.054931640625,737.3626098632812
1631023454870,953.3333129882812,820.7692260742188,807.4725341796875,832.4542236328125
1631023454870,555.6410522460938,817.5457763671875,818.3516235351562,767.9853515625
1631023454870,1116.5201416015625,825.2014770507812,801.8314819335938,921.90478515625
1631023454870,1128.205078125,810.6959838867188,803.8461303710938,924.3223266601562
1631023454870,875.1648559570312,822.3809814453125,806.2637329101562,886.0439453125
1631023454870,597.5457763671875,815.1282348632812,811.90478515625,737.7655639648438
1631023454870,917.4725341796876,815.1282348632812,804.2490844726562,828.4249267578125
1631023454886,544.7619018554688,803.040283203125,802.2344360351562,755.4945068359375
1631023454886,924.7252807617188,808.6813354492188,804.2490844726562,889.6703491210938
1631023454886,525.4212646484375,800.6226806640625,803.4432373046875,708.7545776367188
1631023454886,851.3919677734375,812.3076782226562,809.89013671875,792.967041015625
1631023454901,523.003662109375,819.5604248046875,800.2197875976562,740.1831665039062
1631023454901,652.7472534179688,818.3516235351562,805.4578857421875,747.8388061523438
1631023454901,746.6300659179688,799.4139404296875,809.084228515625,833.6630249023438
1631023454901,799.8168334960938,814.3223266601562,807.87548828125,855.018310546875
1631023454901,995.6410522460938,809.89013671875,794.5787353515625,853.4066162109375
1631023454901,1114.908447265625,791.7582397460938,801.4285888671875,933.99267578125
1631023454901,504.0659484863281,807.069580078125,799.010986328125,723.2600708007812
1631023454901,832.05126953125,799.4139404296875,812.7106323242188,872.7472534179688
1631023454901,525.018310546875,816.3369750976562,807.87548828125,748.6447143554688
1631023454901,1056.4835205078125,797.3992919921875,815.1282348632812,870.7326049804688
1631023454901,1125.3846435546875,808.6813354492188,828.02197265625,942.4542236328124
1631023454933,1091.94140625,798.2051391601562,801.8314819335938,926.7399291992188
1631023454933,1052.4542236328125,808.6813354492188,801.4285888671875,872.3442993164062
1631023454933,1034.3223876953125,797.3992919921875,797.3992919921875,893.2966918945312
1631023454933,1068.5714111328125,802.6373901367188,799.010986328125,880.0
1631023454933,656.3735961914062,797.3992919921875,780.879150390625,790.1465454101562
1631023454933,500.8424987792969,818.3516235351562,804.2490844726562,716.8131713867188
1631023454933,585.8607788085938,795.7875366210938,792.5640869140625,762.7472534179688
1631023454933,454.1025695800781,798.2051391601562,795.7875366210938,672.087890625
1631023454933,761.94140625,818.7545776367188,806.2637329101562,759.9267578125
1631023454933,984.7619018554688,805.8607788085938,796.5933837890625,899.7435913085938
1631023454933,1085.091552734375,819.96337890625,812.7106323242188,874.3589477539062
1631023454933,740.989013671875,813.5164794921875,817.1428833007812,771.2088012695312
1631023455136,503.6629943847656,788.5347900390625,798.6080322265625,697.4725341796875
1631023455136,581.025634765625,790.1465454101562,803.8461303710938,761.94140625
1631023455139,962.6007080078124,804.2490844726562,808.6813354492188,896.5201416015625
1631023455140,1110.4761962890625,807.4725341796875,810.6959838867188,911.4285888671876
1631023455141,850.989013671875,798.6080322265625,802.6373901367188,796.5933837890625
1631023455142,520.5860595703125,788.937744140625,794.5787353515625,699.084228515625
1631023455143,554.029296875,794.1758422851562,793.3699340820312,750.2564086914062
1631023455144,945.2747192382812,801.8314819335938,798.2051391601562,893.2966918945312
1631023455146,1132.6373291015625,794.1758422851562,805.054931640625,916.2637329101562
1631023455147,880.0,794.5787353515625,805.4578857421875,791.7582397460938
1631023455148,516.1538696289062,792.5640869140625,803.040283203125,681.3552856445312
1631023455151,788.937744140625,795.3846435546875,796.5933837890625,765.5677490234375
1631023455171,1100.4029541015625,795.3846435546875,810.6959838867188,922.7106323242188
1631023455171,484.3223571777344,782.087890625,802.2344360351562,725.6776733398438
1631023455171,858.2417602539062,797.8021850585938,806.6666870117188,883.2234497070312
1631023455171,1100.805908203125,796.5933837890625,803.040283203125,922.7106323242188
1631023455171,906.5933837890624,790.1465454101562,807.4725341796875,821.97802734375
1631023455171,566.923095703125,789.7435913085938,797.3992919921875,709.1575317382812
1631023455171,485.5311279296875,794.1758422851562,803.4432373046875,735.7509155273438
1631023455171,767.1795043945312,793.7728881835938,799.010986328125,846.1538696289062
1631023455171,823.5897216796875,797.8021850585938,805.4578857421875,857.4359130859375
1631023455171,614.8717651367188,785.3113403320312,802.6373901367188,725.2747192382812
1631023455171,493.99267578125,796.1904907226562,798.6080322265625,718.4249267578125
1631023455186,954.5421142578124,793.7728881835938,799.8168334960938,833.6630249023438
1631023455202,695.4578857421875,799.4139404296875,807.87548828125,813.5164794921875
1631023455202,716.8131713867188,800.2197875976562,802.2344360351562,747.4359130859375
1631023455202,1106.849853515625,808.2783813476562,802.6373901367188,928.7545776367188
1631023455202,1073.4066162109375,815.93408203125,812.3076782226562,933.5897216796876
1631023455202,739.7802124023438,809.89013671875,801.025634765625,830.03662109375
1631023455202,493.1867980957031,793.7728881835938,804.6520385742188,706.7399291992188
1631023455202,1086.3004150390625,820.3662719726562,805.4578857421875,891.2820434570312
1631023455202,1048.4249267578125,804.2490844726562,807.4725341796875,870.7326049804688
1631023455202,479.8901062011719,796.996337890625,805.054931640625,719.6337280273438
1631023455202,1094.3590087890625,813.5164794921875,806.6666870117188,929.1575317382812
1631023455217,1034.3223876953125,802.2344360351562,803.040283203125,864.6886596679688
1631023455217,674.908447265625,794.981689453125,803.4432373046875,749.4505615234375
1631023455264,1098.791259765625,805.8607788085938,810.2930297851562,897.3259887695312
1631023455264,793.7728881835938,807.87548828125,802.6373901367188,776.8497924804688
1631023455264,836.08056640625,813.113525390625,809.084228515625,781.2820434570312
1631023455264,545.1648559570312,799.4139404296875,804.6520385742188,748.2417602539062
1631023455264,757.912109375,805.8607788085938,797.8021850585938,759.5238037109375
1631023455264,514.945068359375,801.4285888671875,805.054931640625,696.6666870117188
1631023455264,637.032958984375,799.010986328125,816.3369750976562,778.4615478515625
1631023455264,979.120849609375,814.7252807617188,813.91943359375,893.6996459960938
1631023455264,483.5164794921875,806.6666870117188,806.2637329101562,701.098876953125
1631023455264,1026.2637939453125,797.3992919921875,817.94873046875,920.6959838867188
1631023455264,574.1758422851562,809.084228515625,814.3223266601562,767.9853515625
1631023455264,1112.087890625,819.96337890625,813.5164794921875,890.879150390625
1631023455264,492.3809509277344,801.4285888671875,805.8607788085938,688.6080322265625
1631023455280,570.5494384765625,811.5018310546875,803.040283203125,709.5604248046875
1631023455280,550.4029541015625,804.2490844726562,809.89013671875,701.90478515625
1631023455280,850.989013671875,815.93408203125,809.4871826171875,856.6300659179688
1631023455280,918.6813354492188,808.6813354492188,808.6813354492188,815.93408203125
1631023455280,889.6703491210938,810.6959838867188,802.6373901367188,795.7875366210938
1631023455280,889.2673950195312,822.3809814453125,806.2637329101562,873.1502075195312
1631023455280,507.69232177734375,813.5164794921875,805.054931640625,725.6776733398438
1631023455280,526.6300659179688,810.6959838867188,809.89013671875,737.3626098632812
1631023455280,927.94873046875,807.4725341796875,803.8461303710938,884.8351440429688
1631023455280,1114.5054931640625,811.90478515625,802.6373901367188,903.7728881835938
1631023455280,1120.5494384765625,814.3223266601562,810.6959838867188,914.6520385742188
1631023455327,692.6373901367188,840.915771484375,838.901123046875,671.2820434570312
1631023455327,1020.6226806640624,835.2747192382812,828.8278198242188,795.7875366210938
1631023455327,373.9194030761719,844.5421142578125,838.901123046875,584.6520385742188
1631023455327,607.2161254882812,829.6337280273438,816.7399291992188,717.6190185546875
1631023455327,975.8974609375,834.06591796875,819.1575317382812,819.5604248046875
1631023455342,1003.6996459960938,819.5604248046875,807.4725341796875,836.886474609375
1631023455342,1054.871826171875,811.5018310546875,813.113525390625,840.5128173828125
1631023455342,1090.3297119140625,816.7399291992188,813.91943359375,911.025634765625
1631023455342,479.4871826171875,815.5311279296875,811.5018310546875,689.4139404296875
1631023455342,655.1648559570312,810.6959838867188,809.084228515625,705.1282348632812
1631023455342,773.6264038085938,808.2783813476562,809.89013671875,834.06591796875
1631023455342,1030.6959228515625,805.8607788085938,809.89013671875,860.2564086914062
1631023455342,964.2124633789062,817.94873046875,811.098876953125,817.1428833007812
1631023455342,458.937744140625,823.1868286132812,813.91943359375,636.6300659179688
1631023455342,485.1282043457031,814.7252807617188,827.2161254882812,710.7692260742188
1631023455342,731.3186645507812,820.3662719726562,815.1282348632812,826.8131713867188
1631023455342,720.03662109375,811.098876953125,810.6959838867188,700.2930297851562
1631023455342,682.1611938476562,805.8607788085938,811.5018310546875,739.7802124023438
1631023455342,685.7875366210938,820.3662719726562,816.7399291992188,794.5787353515625
1631023455342,1122.5640869140625,817.94873046875,811.098876953125,918.2783813476562
1631023455342,1085.4945068359375,813.5164794921875,818.7545776367188,931.97802734375
1631023455342,618.4981689453125,809.89013671875,810.6959838867188,705.5311279296875
1631023455342,494.3955993652344,804.6520385742188,803.8461303710938,718.02197265625
1631023455342,1039.96337890625,819.96337890625,807.87548828125,886.0439453125
1631023455358,827.6190185546875,817.1428833007812,799.8168334960938,818.7545776367188
1631023455358,471.025634765625,816.7399291992188,806.6666870117188,678.1318969726562
1631023455358,508.4981689453125,819.1575317382812,811.098876953125,656.3735961914062
1631023455358,850.989013671875,823.99267578125,818.3516235351562,752.6740112304688
1631023455358,943.6630249023438,803.040283203125,794.5787353515625,819.1575317382812
1631023455358,1072.19775390625,837.2893676757812,826.4102783203125,860.2564086914062
1631023455358,423.4798583984375,861.062255859375,838.4981689453125,624.945068359375
1631023455358,427.1062316894531,854.6153564453125,824.3956298828125,594.3223266601562
1631023455358,831.2454223632812,845.7509155273438,826.8131713867188,805.8607788085938
1631023455358,768.7911987304688,856.2271118164062,832.4542236328125,683.3699340820312
1631023455358,1025.054931640625,847.7655639648438,845.3479614257812,798.6080322265625
1631023455358,840.10986328125,850.1831665039062,844.1392211914062,774.4322509765625
1631023455358,679.3406372070312,860.2564086914062,838.4981689453125,651.94140625
1631023455358,428.3150329589844,848.974365234375,827.6190185546875,641.062255859375
1631023455358,363.4432373046875,864.6886596679688,835.2747192382812,568.5347900390625
1631023455358,1106.4468994140625,811.5018310546875,799.010986328125,900.952392578125
1631023455374,1124.5787353515625,806.2637329101562,794.981689453125,934.7985229492188
1631023455374,809.4871826171875,813.5164794921875,798.2051391601562,854.6153564453125
1631023455374,482.7106323242188,806.6666870117188,795.7875366210938,719.6337280273438
1631023455374,470.21978759765625,852.6007080078125,838.4981689453125,653.1502075195312
1631023455374,584.2490844726562,802.6373901367188,790.5494384765625,709.1575317382812
1631023455374,1018.6080322265624,792.5640869140625,790.952392578125,851.7948608398438
1631023455374,970.6593627929688,853.003662109375,844.5421142578125,764.7619018554688
1631023455374,865.091552734375,853.003662109375,848.5714111328125,775.6410522460938
1631023455499,547.1795043945312,779.6703491210938,781.2820434570312,734.5421142578125
1631023455499,534.2857055664062,778.4615478515625,785.7142944335938,748.2417602539062
1631023455499,1102.4176025390625,785.3113403320312,786.5201416015625,943.2600708007812
1631023455499,1108.05859375,787.7289428710938,785.7142944335938,907.8021850585938
1631023455499,816.3369750976562,785.7142944335938,785.7142944335938,816.7399291992188
1631023455499,782.087890625,787.3259887695312,782.893798828125,786.923095703125
1631023455499,1060.915771484375,786.923095703125,787.3259887695312,956.5567626953124
1631023455499,665.2380981445312,787.3259887695312,786.1171875,734.1392211914062
1631023455499,725.2747192382812,785.7142944335938,783.6996459960938,825.2014770507812
1631023455514,498.4248962402344,784.5054931640625,783.6996459960938,724.4688720703125
1631023455514,734.1392211914062,782.4908447265625,785.3113403320312,766.7765502929688
1631023455514,1141.90478515625,797.8021850585938,786.5201416015625,942.4542236328124
1631023455514,784.5054931640625,789.3406372070312,785.3113403320312,856.6300659179688
1631023455514,872.3442993164062,793.3699340820312,792.5640869140625,828.02197265625
1631023455514,1143.5164794921875,791.3552856445312,785.7142944335938,956.5567626953124
1631023455514,660.4029541015625,782.087890625,786.5201416015625,835.2747192382812
1631023455514,1106.0439453125,788.1318969726562,791.7582397460938,957.3626098632812
1631023455514,738.1685180664062,791.3552856445312,792.1611938476562,854.6153564453125
1631023455514,518.974365234375,782.4908447265625,784.908447265625,742.6007080078125
1631023455514,1043.186767578125,797.3992919921875,783.6996459960938,954.945068359375
1631023455530,576.5933837890625,795.3846435546875,790.1465454101562,748.2417602539062
1631023455545,635.4212646484375,795.3846435546875,792.967041015625,807.4725341796875
1631023455545,943.2600708007812,806.6666870117188,792.967041015625,847.3626098632812
1631023455545,1128.6080322265625,802.6373901367188,787.7289428710938,945.6776733398438
1631023455545,592.3076782226562,791.7582397460938,791.3552856445312,747.8388061523438
1631023455545,973.8828125,801.4285888671875,792.967041015625,852.1978149414062
1631023455545,883.2234497070312,794.981689453125,788.937744140625,896.1171875
1631023455545,549.1941528320312,788.937744140625,791.7582397460938,767.5823974609375
1631023455545,910.6226806640624,794.1758422851562,792.5640869140625,832.8571166992188
1631023455545,952.5274658203124,798.6080322265625,802.6373901367188,921.5018310546876
1631023455545,1164.871826171875,808.2783813476562,799.8168334960938,954.5421142578124
1631023455545,1005.3113403320312,796.996337890625,797.3992919921875,939.2307739257812
1631023455545,593.113525390625,799.8168334960938,798.2051391601562,745.018310546875
1631023455545,591.098876953125,796.5933837890625,797.8021850585938,785.3113403320312
1631023455545,1153.99267578125,791.3552856445312,791.7582397460938,947.6923217773438
1631023455561,534.6886596679688,804.6520385742188,793.7728881835938,764.7619018554688
1631023455561,700.2930297851562,805.054931640625,805.8607788085938,760.7326049804688
1631023455561,831.6483764648438,808.6813354492188,796.5933837890625,881.6116943359375
1631023455561,780.0732421875,796.996337890625,801.8314819335938,858.2417602539062
1631023455561,1113.2967529296875,802.6373901367188,798.6080322265625,945.6776733398438
1631023455561,1097.9853515625,803.8461303710938,805.054931640625,941.6483764648438
1631023455561,514.945068359375,793.3699340820312,798.2051391601562,749.8534545898438
1631023455561,511.72161865234375,799.4139404296875,804.2490844726562,733.3333129882812
1631023455561,672.893798828125,795.7875366210938,798.6080322265625,758.7179565429688
1631023455561,633.8095092773438,796.5933837890625,790.5494384765625,755.4945068359375
1631023455561,1011.3552856445312,799.010986328125,802.6373901367188,861.4652099609375
1631023455561,1031.5018310546875,808.2783813476562,803.040283203125,873.5531005859375
1631023455577,747.8388061523438,810.6959838867188,794.981689453125,775.2380981445312
1631023455577,996.4468994140624,810.2930297851562,809.4871826171875,913.8461303710938
1631023455577,1061.3187255859375,804.2490844726562,806.6666870117188,892.4908447265625
1631023455577,1070.5860595703125,806.2637329101562,803.4432373046875,886.4468994140625
1631023455577,1010.1465454101562,809.89013671875,803.4432373046875,913.040283203125
1631023455577,735.3479614257812,801.8314819335938,798.6080322265625,834.4688720703125
1631023455577,606.00732421875,799.010986328125,813.113525390625,793.7728881835938
1631023455577,471.8315124511719,790.1465454101562,812.7106323242188,701.098876953125
1631023455577,762.7472534179688,794.981689453125,808.2783813476562,770.4029541015625
1631023455577,1076.6300048828125,802.2344360351562,806.6666870117188,931.97802734375
1631023455577,667.6557006835938,806.2637329101562,809.89013671875,806.2637329101562
1631023455577,504.0659484863281,804.2490844726562,805.8607788085938,724.4688720703125
1631023455749,952.5274658203124,811.5018310546875,809.084228515625,909.4139404296876
1631023455749,560.4761962890625,803.8461303710938,807.4725341796875,755.4945068359375
1631023455749,483.5164794921875,799.4139404296875,805.8607788085938,720.03662109375
1631023455749,786.923095703125,798.2051391601562,808.6813354492188,766.7765502929688
1631023455749,1078.24169921875,804.6520385742188,809.4871826171875,878.7911987304688
1631023455749,560.0732421875,801.8314819335938,805.054931640625,778.4615478515625
1631023455749,855.018310546875,804.6520385742188,799.4139404296875,809.084228515625
1631023455749,540.7326049804688,796.1904907226562,799.8168334960938,711.5750732421875
1631023455749,1125.78759765625,808.6813354492188,798.2051391601562,930.3662719726562
1631023455749,909.8168334960938,804.2490844726562,799.8168334960938,823.5897216796875
1631023455749,1101.208740234375,815.5311279296875,807.87548828125,921.90478515625
1631023455874,585.8607788085938,794.5787353515625,797.8021850585938,712.7838745117188
1631023455876,965.018310546875,799.8168334960938,793.3699340820312,824.7985229492188
1631023455876,1166.08056640625,805.4578857421875,798.2051391601562,945.2747192382812
1631023455876,881.2088012695312,804.6520385742188,797.8021850585938,883.6264038085938
1631023455876,523.8095092773438,796.1904907226562,793.3699340820312,730.915771484375
1631023455876,467.80218505859375,794.1758422851562,796.996337890625,698.2783813476562
1631023455876,568.5347900390625,793.3699340820312,796.1904907226562,689.4139404296875
1631023455886,670.4761962890625,779.2673950195312,807.069580078125,725.6776733398438
1631023455886,1134.6519775390625,801.025634765625,803.4432373046875,944.06591796875
1631023455886,704.3223266601562,794.5787353515625,804.2490844726562,731.3186645507812
1631023455886,452.4908447265625,782.087890625,800.6226806640625,687.3992919921875
1631023455886,1084.2857666015625,794.1758422851562,805.054931640625,868.7179565429688
1631023455886,437.9853515625,790.952392578125,801.8314819335938,682.1611938476562
1631023455886,652.3442993164062,790.952392578125,805.4578857421875,793.7728881835938
1631023455886,733.7362670898438,799.4139404296875,799.4139404296875,821.1721801757812
1631023455886,1015.3846435546876,784.908447265625,805.054931640625,840.10986328125
1631023455886,622.12451171875,784.1025390625,802.2344360351562,692.2344360351562
1631023455886,1057.6922607421875,788.5347900390625,813.5164794921875,870.3296508789062
1631023455886,1141.90478515625,784.5054931640625,813.113525390625,952.5274658203124
1631023455886,1153.5897216796875,786.923095703125,802.6373901367188,942.4542236328124
1631023455886,820.3662719726562,795.3846435546875,796.5933837890625,853.8095092773438
1631023455886,782.4908447265625,780.879150390625,805.054931640625,854.2124633789062
1631023455886,466.5934143066406,781.6849975585938,800.2197875976562,697.87548828125
1631023455886,1077.032958984375,793.7728881835938,813.113525390625,943.2600708007812
1631023456009,1105.6409912109375,789.7435913085938,812.3076782226562,910.6226806640624
1631023456009,751.8681030273438,783.6996459960938,806.2637329101562,759.9267578125
1631023456010,444.029296875,786.1171875,802.6373901367188,669.6703491210938
1631023456018,595.1282348632812,796.996337890625,802.2344360351562,771.6116943359375
1631023456019,1023.4432373046876,801.8314819335938,804.6520385742188,931.5750732421876
1631023456021,1122.1611328125,799.4139404296875,808.6813354492188,911.8314819335938
1631023456023,809.89013671875,794.5787353515625,806.2637329101562,754.2857055664062
1631023456024,477.8754577636719,797.3992919921875,802.6373901367188,656.7765502929688
1631023456024,562.087890625,799.010986328125,805.4578857421875,755.4945068359375
1631023456025,993.2234497070312,800.2197875976562,806.6666870117188,922.7106323242188
1631023456026,1148.3516845703125,799.4139404296875,804.2490844726562,925.93408203125
1631023456026,857.032958984375,795.7875366210938,805.4578857421875,790.5494384765625
1631023456042,481.9047546386719,793.3699340820312,802.2344360351562,663.6264038085938
1631023456044,496.8132019042969,792.1611938476562,795.3846435546875,717.2161254882812
1631023456045,1147.94873046875,801.025634765625,802.2344360351562,932.3809814453124
1631023456045,929.5604248046876,803.040283203125,800.6226806640625,898.5347900390625
1631023456046,883.6264038085938,796.5933837890625,801.4285888671875,803.8461303710938
1631023456047,482.30767822265625,802.2344360351562,802.6373901367188,713.5897216796875
1631023456047,500.03662109375,799.4139404296875,802.6373901367188,676.923095703125
1631023456048,884.8351440429688,807.4725341796875,800.2197875976562,884.4322509765625
1631023456049,1145.128173828125,803.8461303710938,800.2197875976562,935.6043701171876
1631023456049,902.967041015625,799.4139404296875,801.025634765625,798.2051391601562
1631023456050,547.1795043945312,802.2344360351562,800.6226806640625,676.5201416015625
1631023456050,477.0696105957031,798.2051391601562,799.8168334960938,703.5164794921875
1631023456058,829.6337280273438,801.4285888671875,803.040283203125,855.8241577148438
1631023456058,989.5970458984376,795.7875366210938,803.8461303710938,829.6337280273438
1631023456058,1144.7252197265625,804.6520385742188,804.6520385742188,931.1721801757812
1631023456060,449.6703186035156,811.90478515625,800.2197875976562,679.7435913085938
1631023456060,600.7692260742188,802.6373901367188,804.2490844726562,690.6226806640625
1631023456068,1147.5457763671875,817.1428833007812,803.040283203125,938.8278198242188
1631023456068,778.8644409179688,815.5311279296875,798.6080322265625,824.3956298828125
1631023456069,1041.97802734375,805.4578857421875,802.2344360351562,863.8828125
1631023456070,640.6593627929688,804.6520385742188,801.025634765625,698.6813354492188
1631023456070,439.5970764160156,810.6959838867188,803.8461303710938,672.087890625
1631023456071,715.6043701171875,812.7106323242188,803.040283203125,819.96337890625
1631023456071,1101.208740234375,814.3223266601562,802.2344360351562,939.6337280273438
1631023456076,1063.7362060546875,811.098876953125,808.2783813476562,877.1795043945312
1631023456076,697.87548828125,807.069580078125,807.4725341796875,729.7069702148438
1631023456077,427.9120788574219,800.2197875976562,800.2197875976562,668.4615478515625
1631023456077,654.3589477539062,805.8607788085938,799.8168334960938,796.996337890625
1631023456078,1114.1025390625,809.4871826171875,797.8021850585938,892.893798828125
1631023456078,1093.150146484375,812.3076782226562,800.2197875976562,940.03662109375
1631023456079,590.6959838867188,804.6520385742188,782.087890625,765.5677490234375
1631023456079,418.2417602539063,807.069580078125,777.6557006835938,649.5238037109375
1631023456079,741.3919677734375,810.2930297851562,785.3113403320312,743.8095092773438
1631023456080,1046.4102783203125,811.5018310546875,782.893798828125,936.8131713867188
1631023456080,1129.4139404296875,810.6959838867188,782.4908447265625,910.2197875976562
1631023456081,783.6996459960938,799.010986328125,780.0732421875,760.7326049804688
1631023456083,452.4908447265625,796.996337890625,778.8644409179688,665.6410522460938
1631023456085,1007.3259887695312,807.069580078125,792.5640869140625,920.6959838867188
1631023456085,564.908447265625,803.040283203125,786.1171875,751.062255859375
1631023456086,847.3626098632812,801.025634765625,789.7435913085938,781.2820434570312
1631023456086,1153.186767578125,805.4578857421875,795.7875366210938,926.3369750976562
1631023456087,495.6044006347656,797.8021850585938,782.4908447265625,667.2527465820312
1631023456087,551.2088012695312,803.040283203125,786.1171875,733.3333129882812
1631023456094,967.4359130859376,809.4871826171875,789.3406372070312,902.967041015625
1631023456095,1162.4542236328125,803.040283203125,784.908447265625,927.1428833007812
1631023456096,904.5787353515624,797.8021850585938,783.6996459960938,799.8168334960938
1631023456096,518.1685180664062,801.025634765625,782.893798828125,670.879150390625
1631023456097,500.8424987792969,802.2344360351562,784.5054931640625,713.1868286132812
1631023456106,941.6483764648438,807.069580078125,788.1318969726562,813.113525390625
1631023456107,1167.6922607421875,820.3662719726562,803.4432373046875,946.886474609375
1631023456107,865.4945068359375,815.93408203125,798.2051391601562,874.7619018554688
1631023456107,535.8974609375,802.6373901367188,786.923095703125,684.1758422851562
1631023456107,467.3992614746094,803.8461303710938,790.5494384765625,705.93408203125
1631023456108,1000.0732421875,808.2783813476562,799.010986328125,828.8278198242188
1631023456108,606.4102783203125,801.8314819335938,792.1611938476562,693.040283203125
1631023456108,466.19049072265625,805.4578857421875,793.7728881835938,703.113525390625
1631023456109,785.3113403320312,807.069580078125,796.1904907226562,860.2564086914062
1631023456109,1135.054931640625,813.91943359375,798.2051391601562,948.09521484375
1631023456121,906.996337890625,805.4578857421875,791.3552856445312,885.2380981445312
1631023456121,1160.842529296875,811.098876953125,791.3552856445312,925.1282348632812
1631023456140,465.78753662109375,802.6373901367188,793.7728881835938,686.996337890625
1631023456141,743.8095092773438,808.6813354492188,795.3846435546875,813.91943359375
1631023456142,1119.7435302734375,817.1428833007812,794.5787353515625,937.6190185546876
1631023456143,1076.22705078125,813.91943359375,790.952392578125,873.1502075195312
1631023456144,693.040283203125,798.6080322265625,790.1465454101562,722.8571166992188
1631023456145,435.5677795410156,797.3992919921875,797.8021850585938,668.05859375
1631023456146,670.4761962890625,808.2783813476562,803.4432373046875,802.2344360351562
1631023456155,655.1648559570312,803.4432373046875,796.996337890625,713.99267578125
1631023456160,1041.5750732421875,812.3076782226562,800.2197875976562,842.12451171875
1631023456173,1100.805908203125,809.89013671875,803.4432373046875,943.2600708007812
1631023456175,735.7509155273438,806.2637329101562,797.8021850585938,746.2271118164062
1631023456175,1107.2528076171875,805.8607788085938,799.4139404296875,880.8058471679688
1631023456184,450.0732727050781,803.040283203125,802.2344360351562,686.1904907226562
1631023456186,1064.13916015625,813.5164794921875,807.069580078125,953.3333129882812
1631023456186,631.3919677734375,800.6226806640625,803.040283203125,792.5640869140625
1631023456187,1135.054931640625,820.7692260742188,811.90478515625,929.5604248046876
1631023456188,789.7435913085938,813.5164794921875,805.8607788085938,769.1941528320312
1631023456188,461.75823974609375,810.6959838867188,800.2197875976562,669.2673950195312
1631023456190,1033.5164794921875,806.6666870117188,798.2051391601562,889.6703491210938
1631023456190,586.6666870117188,807.4725341796875,795.7875366210938,749.8534545898438
1631023456191,1183.003662109375,807.4725341796875,802.2344360351562,900.5494384765625
1631023456191,510.5128173828125,805.054931640625,790.5494384765625,657.9853515625
1631023456191,876.7765502929688,803.4432373046875,797.3992919921875,772.0146484375
1631023456192,573.3699340820312,804.6520385742188,792.5640869140625,735.3479614257812
1631023456196,987.5823974609376,808.6813354492188,807.4725341796875,912.2344360351562
1631023456197,887.2527465820312,807.4725341796875,804.2490844726562,799.4139404296875
1631023456197,1156.00732421875,812.7106323242188,812.3076782226562,940.4395751953124
1631023456198,496.8132019042969,805.8607788085938,801.025634765625,672.087890625
1631023456202,487.94873046875,808.6813354492188,799.010986328125,718.02197265625
1631023456202,907.8021850585938,817.1428833007812,801.4285888671875,888.05859375
1631023456203,933.5897216796876,804.6520385742188,793.7728881835938,806.2637329101562
1631023456203,1157.216064453125,813.113525390625,799.4139404296875,934.3956298828124
1631023456203,532.2710571289062,805.8607788085938,795.7875366210938,672.4908447265625
1631023456204,465.3846130371094,804.6520385742188,793.7728881835938,700.2930297851562
1631023456204,862.2710571289062,799.010986328125,800.2197875976562,874.3589477539062
1631023456210,973.4798583984376,813.5164794921875,802.6373901367188,838.4981689453125
1631023456210,1165.6776123046875,801.025634765625,809.4871826171875,953.3333129882812
1631023456212,571.7582397460938,808.2783813476562,800.6226806640625,689.4139404296875
1631023456213,472.6373596191406,808.6813354492188,799.4139404296875,686.5933837890625
1631023456213,818.3516235351562,813.91943359375,792.1611938476562,849.7802124023438
1631023456214,1153.99267578125,811.90478515625,794.981689453125,956.5567626953124
1631023456217,1039.157470703125,815.1282348632812,796.5933837890625,869.120849609375
1631023456218,645.4945068359375,804.2490844726562,796.996337890625,715.6043701171875
1631023456219,733.7362670898438,808.6813354492188,801.8314819335938,831.6483764648438
1631023456219,448.4615478515625,801.4285888671875,799.4139404296875,683.7728881835938
1631023456220,1125.3846435546875,815.93408203125,804.6520385742188,946.4835205078124
1631023456220,1062.12451171875,813.5164794921875,801.8314819335938,868.7179565429688
1631023456221,677.3259887695312,804.2490844726562,798.6080322265625,724.4688720703125
1631023456289,450.4761962890625,806.2637329101562,799.8168334960938,688.2051391601562
1631023456290,693.8461303710938,809.4871826171875,804.6520385742188,815.5311279296875
1631023456291,1107.2528076171875,808.2783813476562,807.069580078125,938.8278198242188
1631023456292,1107.6556396484375,808.6813354492188,802.6373901367188,894.5054931640625
1631023456293,729.7069702148438,803.8461303710938,801.025634765625,747.4359130859375
1631023456294,449.6703186035156,808.6813354492188,804.2490844726562,679.3406372070312
1631023456295,646.7033081054688,816.7399291992188,803.8461303710938,797.3992919921875
1631023456296,1074.6153564453125,815.93408203125,807.069580078125,949.7069702148438
1631023456297,1124.17578125,809.89013671875,803.4432373046875,913.8461303710938
1631023456299,773.6264038085938,800.6226806640625,798.6080322265625,761.5384521484375
1631023456300,458.937744140625,795.7875366210938,799.010986328125,678.1318969726562
1631023456302,599.1575317382812,806.2637329101562,797.3992919921875,766.7765502929688
1631023456316,1039.157470703125,819.5604248046875,801.4285888671875,930.3662719726562
1631023456343,1145.128173828125,812.3076782226562,804.6520385742188,922.7106323242188
1631023456344,828.4249267578125,803.4432373046875,802.6373901367188,770.8058471679688
1631023456346,479.4871826171875,807.87548828125,801.4285888671875,667.6557006835938
1631023456349,552.0146484375,812.7106323242188,802.6373901367188,749.047607421875
1631023456350,1173.3333740234375,817.94873046875,807.069580078125,934.7985229492188
1631023456350,1001.2820434570312,818.7545776367188,804.6520385742188,919.084228515625
1631023456351,873.5531005859375,804.6520385742188,801.8314819335938,792.5640869140625
1631023456352,504.0659484863281,795.3846435546875,797.3992919921875,671.6849975585938
1631023456352,519.3773193359375,799.4139404296875,805.8607788085938,722.05126953125
1631023456353,931.5750732421876,816.7399291992188,814.3223266601562,889.6703491210938
1631023456353,1176.5567626953125,822.7838745117188,814.7252807617188,938.8278198242188
1631023456502,947.2893676757812,816.7399291992188,808.2783813476562,812.7106323242188
1631023456503,542.7472534179688,809.4871826171875,805.054931640625,680.952392578125
1631023456504,475.8608093261719,810.2930297851562,809.4871826171875,715.6043701171875
1631023456506,870.7326049804688,821.5750732421875,809.4871826171875,881.6116943359375
1631023456507,1163.2601318359375,823.99267578125,810.6959838867188,945.6776733398438
1631023456508,981.94140625,815.5311279296875,808.6813354492188,833.6630249023438
1631023456509,599.1575317382812,803.8461303710938,802.6373901367188,701.5018310546875
1631023456510,481.9047546386719,800.2197875976562,808.6813354492188,707.5457763671875
1631023456511,826.8131713867188,811.5018310546875,810.2930297851562,859.047607421875
1631023456512,1156.813232421875,820.7692260742188,809.4871826171875,942.8571166992188
1631023456514,1021.8314819335938,820.7692260742188,814.7252807617188,839.7069702148438
1631023456515,628.974365234375,817.94873046875,811.5018310546875,684.1758422851562
1631023456532,459.3406677246094,818.3516235351562,812.7106323242188,683.7728881835938
1631023456534,767.5823974609375,817.5457763671875,809.89013671875,846.959716796875
