timestamp,TP9,AF7,AF8,TP10
1630415911994,831.6483764648438,796.996337890625,813.5164794921875,828.4249267578125
1630415911994,845.3479614257812,811.5018310546875,805.054931640625,791.3552856445312
1630415911994,840.915771484375,801.4285888671875,810.2930297851562,765.1648559570312
1630415911994,845.3479614257812,814.3223266601562,801.025634765625,818.7545776367188
1630415911994,851.7948608398438,805.8607788085938,811.5018310546875,821.97802734375
1630415911994,839.7069702148438,801.025634765625,814.3223266601562,837.2893676757812
1630415911994,832.4542236328125,800.2197875976562,810.2930297851562,783.6996459960938
1630415911994,849.3773193359375,823.5897216796875,798.2051391601562,817.5457763671875
1630415911994,850.1831665039062,808.6813354492188,804.6520385742188,821.97802734375
1630415911994,837.2893676757812,803.4432373046875,813.91943359375,816.7399291992188
1630415911994,826.00732421875,806.2637329101562,806.2637329101562,787.7289428710938
1630415912010,836.4835205078125,810.6959838867188,806.2637329101562,784.908447265625
1630415912010,838.901123046875,818.7545776367188,803.8461303710938,784.5054931640625
1630415912010,855.018310546875,814.7252807617188,817.5457763671875,844.5421142578125
1630415912010,849.7802124023438,804.2490844726562,801.025634765625,773.6264038085938
1630415912010,851.3919677734375,814.7252807617188,794.1758422851562,792.967041015625
1630415912010,853.003662109375,813.5164794921875,818.3516235351562,859.8534545898438
1630415912010,853.8095092773438,809.4871826171875,812.7106323242188,803.4432373046875
1630415912010,853.003662109375,807.4725341796875,811.5018310546875,776.4468994140625
1630415912010,827.2161254882812,811.5018310546875,798.2051391601562,787.3259887695312
1630415912010,840.5128173828125,809.084228515625,806.2637329101562,824.7985229492188
1630415912010,850.1831665039062,811.098876953125,809.4871826171875,812.3076782226562
1630415912010,846.959716796875,805.8607788085938,814.3223266601562,777.6557006835938
1630415912025,836.886474609375,814.3223266601562,809.084228515625,843.7362670898438
1630415912120,827.2161254882812,806.2637329101562,815.5311279296875,793.7728881835938
1630415912120,817.5457763671875,809.084228515625,796.996337890625,759.120849609375
1630415912120,815.93408203125,809.084228515625,800.6226806640625,802.2344360351562
1630415912120,815.93408203125,806.2637329101562,801.025634765625,817.5457763671875
1630415912120,817.5457763671875,809.89013671875,799.010986328125,763.9560546875
1630415912120,814.7252807617188,811.098876953125,794.1758422851562,747.8388061523438
1630415912120,819.96337890625,807.87548828125,799.8168334960938,751.8681030273438
1630415912120,826.8131713867188,805.4578857421875,798.2051391601562,836.08056640625
1630415912120,824.3956298828125,801.025634765625,814.3223266601562,822.7838745117188
1630415912120,834.06591796875,801.025634765625,810.6959838867188,771.2088012695312
1630415912120,830.4395751953125,807.87548828125,807.4725341796875,812.3076782226562
1630415912120,838.901123046875,812.7106323242188,803.8461303710938,830.8424682617188
1630415912120,824.3956298828125,810.6959838867188,793.7728881835938,796.5933837890625
1630415912120,840.915771484375,804.6520385742188,810.6959838867188,840.915771484375
1630415912120,829.2307739257812,809.4871826171875,803.040283203125,833.6630249023438
1630415912120,832.4542236328125,802.6373901367188,809.4871826171875,801.025634765625
1630415912136,815.93408203125,797.8021850585938,813.113525390625,811.5018310546875
1630415912151,810.6959838867188,806.2637329101562,815.1282348632812,793.3699340820312
1630415912151,816.3369750976562,815.1282348632812,816.7399291992188,844.5421142578125
1630415912151,824.3956298828125,810.2930297851562,807.069580078125,829.6337280273438
1630415912151,796.5933837890625,802.6373901367188,816.3369750976562,817.1428833007812
1630415912151,835.6776733398438,808.6813354492188,805.4578857421875,794.981689453125
1630415912151,812.7106323242188,812.7106323242188,813.5164794921875,805.054931640625
1630415912151,840.915771484375,813.91943359375,803.4432373046875,807.4725341796875
1630415912151,794.1758422851562,808.6813354492188,806.2637329101562,779.6703491210938
1630415912151,805.054931640625,805.054931640625,810.2930297851562,823.5897216796875
1630415912151,804.2490844726562,802.2344360351562,809.89013671875,766.3735961914062
1630415912151,826.00732421875,809.89013671875,808.6813354492188,814.3223266601562
1630415912151,817.5457763671875,809.084228515625,817.94873046875,831.6483764648438
1630415912151,821.1721801757812,802.6373901367188,806.6666870117188,767.5823974609375
1630415912151,805.054931640625,799.8168334960938,813.113525390625,792.5640869140625
1630415912151,816.7399291992188,801.025634765625,810.6959838867188,780.879150390625
1630415912151,806.6666870117188,801.025634765625,816.3369750976562,836.08056640625
1630415912151,817.5457763671875,813.5164794921875,799.010986328125,768.3883056640625
1630415912151,822.7838745117188,808.6813354492188,800.6226806640625,805.054931640625
1630415912151,799.010986328125,807.4725341796875,808.6813354492188,813.113525390625
1630415912229,791.7582397460938,799.4139404296875,811.90478515625,771.6116943359375
1630415912229,801.025634765625,811.5018310546875,808.6813354492188,802.6373901367188
1630415912245,796.5933837890625,808.6813354492188,801.4285888671875,759.9267578125
1630415912245,804.2490844726562,803.040283203125,801.8314819335938,757.106201171875
1630415912245,811.5018310546875,807.069580078125,804.6520385742188,812.3076782226562
1630415912245,793.7728881835938,796.996337890625,811.098876953125,777.6557006835938
1630415912245,809.89013671875,807.4725341796875,802.2344360351562,790.1465454101562
1630415912245,798.6080322265625,809.4871826171875,802.6373901367188,770.4029541015625
1630415912245,827.2161254882812,800.6226806640625,805.4578857421875,819.1575317382812
1630415912245,803.040283203125,804.6520385742188,813.91943359375,811.5018310546875
1630415912245,798.6080322265625,801.4285888671875,802.2344360351562,803.040283203125
1630415912245,810.2930297851562,806.6666870117188,801.4285888671875,805.4578857421875
1630415912245,821.97802734375,798.6080322265625,804.2490844726562,780.0732421875
1630415912245,807.4725341796875,808.6813354492188,800.2197875976562,785.3113403320312
1630415912245,799.4139404296875,799.010986328125,809.4871826171875,822.3809814453125
1630415912261,807.87548828125,807.4725341796875,796.5933837890625,800.2197875976562
1630415912261,813.113525390625,807.87548828125,801.8314819335938,798.2051391601562
1630415912261,803.4432373046875,800.2197875976562,800.2197875976562,783.6996459960938
1630415912261,799.4139404296875,804.2490844726562,803.040283203125,784.1025390625
1630415912261,817.94873046875,806.2637329101562,800.6226806640625,780.879150390625
1630415912261,814.7252807617188,809.084228515625,800.2197875976562,783.2966918945312
1630415912261,807.069580078125,801.4285888671875,796.1904907226562,809.4871826171875
1630415912261,811.5018310546875,807.4725341796875,801.025634765625,814.7252807617188
1630415912261,821.5750732421875,812.3076782226562,802.6373901367188,835.2747192382812
1630415912292,820.3662719726562,807.4725341796875,803.8461303710938,759.120849609375
1630415912292,820.3662719726562,812.3076782226562,807.87548828125,790.952392578125
1630415912292,817.94873046875,812.7106323242188,801.8314819335938,821.5750732421875
1630415912292,823.1868286132812,814.7252807617188,799.4139404296875,821.97802734375
1630415912292,825.2014770507812,820.7692260742188,796.996337890625,785.7142944335938
1630415912292,819.96337890625,820.3662719726562,797.3992919921875,768.7911987304688
1630415912292,825.2014770507812,826.00732421875,802.2344360351562,786.923095703125
1630415912292,826.00732421875,811.5018310546875,801.8314819335938,791.7582397460938
1630415912292,822.3809814453125,814.3223266601562,801.025634765625,767.9853515625
1630415912307,824.3956298828125,818.3516235351562,802.6373901367188,782.893798828125
1630415912307,813.5164794921875,816.3369750976562,805.054931640625,712.3809814453125
1630415912307,812.3076782226562,818.3516235351562,806.2637329101562,726.886474609375
1630415912323,814.3223266601562,821.5750732421875,794.981689453125,695.8607788085938
1630415912323,827.2161254882812,810.2930297851562,797.3992919921875,753.8828125
1630415912323,818.7545776367188,806.6666870117188,792.5640869140625,735.3479614257812
1630415912323,826.4102783203125,821.97802734375,803.4432373046875,763.1502075195312
1630415912323,824.7985229492188,815.1282348632812,802.2344360351562,769.1941528320312
1630415912323,825.6043701171875,819.5604248046875,800.2197875976562,704.7252807617188
1630415912323,833.2600708007812,818.3516235351562,793.3699340820312,751.8681030273438
1630415912323,830.03662109375,813.113525390625,796.1904907226562,753.4798583984375
1630415912323,830.4395751953125,820.3662719726562,803.4432373046875,743.8095092773438
1630415912323,827.6190185546875,815.1282348632812,801.4285888671875,747.4359130859375
1630415912323,841.7216186523438,808.6813354492188,800.2197875976562,778.4615478515625
1630415912339,833.6630249023438,815.93408203125,797.3992919921875,732.12451171875
1630415912417,817.1428833007812,809.084228515625,797.3992919921875,755.091552734375
1630415912417,815.5311279296875,805.4578857421875,794.5787353515625,730.915771484375
1630415912417,825.6043701171875,813.5164794921875,798.2051391601562,718.8278198242188
1630415912417,824.3956298828125,804.6520385742188,796.5933837890625,780.4761962890625
1630415912417,829.6337280273438,829.6337280273438,800.6226806640625,761.94140625
1630415912417,829.6337280273438,811.5018310546875,797.8021850585938,735.3479614257812
1630415912417,824.7985229492188,817.94873046875,797.8021850585938,713.5897216796875
1630415912432,799.8168334960938,817.94873046875,807.4725341796875,395.2747192382813
1630415912432,822.3809814453125,799.010986328125,794.5787353515625,760.7326049804688
1630415912432,828.4249267578125,812.3076782226562,800.2197875976562,653.9560546875
1630415912432,805.054931640625,816.7399291992188,810.2930297851562,479.8901062011719
1630415912432,825.6043701171875,811.098876953125,793.3699340820312,728.4981689453125
1630415912432,810.6959838867188,813.113525390625,811.098876953125,363.8461608886719
1630415912432,809.4871826171875,804.6520385742188,806.2637329101562,547.1795043945312
1630415912432,809.89013671875,821.1721801757812,796.996337890625,504.8717956542969
1630415912432,819.96337890625,812.7106323242188,807.87548828125,606.4102783203125
1630415912432,816.7399291992188,816.3369750976562,797.3992919921875,593.113525390625
1630415912448,808.6813354492188,804.2490844726562,809.4871826171875,622.5274658203125
1630415912448,794.1758422851562,811.098876953125,813.91943359375,651.94140625
1630415912448,825.2014770507812,810.6959838867188,807.87548828125,419.047607421875
1630415912448,819.5604248046875,813.113525390625,811.098876953125,381.1721496582031
1630415912448,824.3956298828125,809.084228515625,807.87548828125,436.3736267089844
1630415912448,812.3076782226562,807.87548828125,806.6666870117188,470.6227111816406
1630415912464,803.8461303710938,811.098876953125,809.89013671875,704.3223266601562
1630415912464,794.5787353515625,805.4578857421875,809.4871826171875,619.7069702148438
1630415912464,799.8168334960938,806.6666870117188,815.5311279296875,636.2271118164062
1630415912464,796.5933837890625,813.91943359375,805.8607788085938,702.3076782226562
1630415912464,803.040283203125,811.90478515625,809.4871826171875,721.2454223632812
1630415912464,788.937744140625,809.084228515625,807.87548828125,653.1502075195312
1630415912479,805.4578857421875,809.4871826171875,804.2490844726562,749.4505615234375
1630415912479,801.4285888671875,811.098876953125,801.8314819335938,689.4139404296875
1630415912479,801.025634765625,806.6666870117188,803.040283203125,715.2014770507812
1630415912479,799.8168334960938,815.5311279296875,800.6226806640625,682.5640869140625
1630415912479,809.4871826171875,807.87548828125,803.4432373046875,728.901123046875
1630415912479,800.2197875976562,809.4871826171875,799.010986328125,685.7875366210938
1630415912545,812.7106323242188,810.2930297851562,803.4432373046875,756.7033081054688
1630415912561,791.3552856445312,805.8607788085938,803.040283203125,716.8131713867188
1630415912561,801.025634765625,798.6080322265625,818.3516235351562,810.2930297851562
1630415912561,807.069580078125,793.7728881835938,813.5164794921875,794.5787353515625
1630415912561,805.8607788085938,807.069580078125,806.6666870117188,799.8168334960938
1630415912561,806.2637329101562,817.5457763671875,796.5933837890625,771.2088012695312
1630415912561,815.1282348632812,812.3076782226562,809.084228515625,800.6226806640625
1630415912561,797.8021850585938,805.054931640625,807.87548828125,759.9267578125
1630415912561,799.8168334960938,801.4285888671875,807.4725341796875,776.4468994140625
1630415912561,803.8461303710938,801.4285888671875,806.6666870117188,726.886474609375
1630415912561,803.8461303710938,807.4725341796875,805.054931640625,785.3113403320312
1630415912561,803.040283203125,797.3992919921875,815.5311279296875,787.3259887695312
1630415912561,793.3699340820312,799.4139404296875,815.1282348632812,827.2161254882812
1630415912561,800.6226806640625,809.4871826171875,807.87548828125,756.7033081054688
1630415912561,807.069580078125,807.4725341796875,811.5018310546875,786.923095703125
1630415912561,813.5164794921875,800.6226806640625,806.2637329101562,727.6923217773438
1630415912561,796.996337890625,801.025634765625,816.7399291992188,842.930419921875
1630415912561,792.1611938476562,811.90478515625,798.2051391601562,710.7692260742188
1630415912561,801.4285888671875,805.8607788085938,802.2344360351562,746.2271118164062
1630415912561,795.3846435546875,809.4871826171875,796.5933837890625,757.912109375
1630415912561,797.3992919921875,810.2930297851562,810.6959838867188,755.8974609375
1630415912561,793.3699340820312,807.87548828125,810.2930297851562,804.6520385742188
1630415912576,795.3846435546875,813.113525390625,811.90478515625,834.4688720703125
1630415912576,809.084228515625,798.6080322265625,813.91943359375,823.5897216796875
1630415912592,784.908447265625,793.3699340820312,813.5164794921875,771.2088012695312
1630415912592,795.7875366210938,800.6226806640625,813.5164794921875,812.3076782226562
1630415912592,788.5347900390625,792.1611938476562,813.5164794921875,780.4761962890625
1630415912592,803.8461303710938,800.2197875976562,812.3076782226562,846.959716796875
1630415912608,825.2014770507812,803.040283203125,808.6813354492188,828.4249267578125
1630415912608,812.3076782226562,801.025634765625,814.7252807617188,806.2637329101562
1630415912608,817.5457763671875,806.2637329101562,811.90478515625,797.8021850585938
1630415912608,804.2490844726562,798.6080322265625,812.3076782226562,827.6190185546875
1630415912608,811.098876953125,800.6226806640625,800.2197875976562,790.952392578125
1630415912608,819.96337890625,803.8461303710938,813.113525390625,793.7728881835938
1630415912608,822.7838745117188,792.5640869140625,804.2490844726562,815.1282348632812
1630415912608,806.6666870117188,812.7106323242188,809.4871826171875,813.91943359375
1630415912670,825.2014770507812,806.6666870117188,803.4432373046875,838.09521484375
1630415912686,828.4249267578125,806.6666870117188,808.6813354492188,796.1904907226562
1630415912686,815.93408203125,813.113525390625,807.87548828125,820.3662719726562
1630415912686,810.6959838867188,802.6373901367188,805.8607788085938,780.879150390625
1630415912686,809.4871826171875,806.6666870117188,802.6373901367188,774.8351440429688
1630415912686,814.7252807617188,805.054931640625,805.4578857421875,798.6080322265625
1630415912686,809.89013671875,813.5164794921875,802.6373901367188,770.4029541015625
1630415912686,826.00732421875,805.054931640625,807.4725341796875,839.3040161132812
1630415912686,819.1575317382812,807.069580078125,804.2490844726562,804.6520385742188
1630415912686,815.1282348632812,809.89013671875,808.6813354492188,806.2637329101562
1630415912686,809.4871826171875,811.90478515625,798.6080322265625,742.1978149414062
1630415912686,821.97802734375,805.4578857421875,806.2637329101562,805.4578857421875
1630415912686,813.113525390625,809.89013671875,803.8461303710938,779.2673950195312
1630415912686,809.89013671875,808.2783813476562,805.4578857421875,778.8644409179688
1630415912686,803.4432373046875,811.5018310546875,806.6666870117188,809.4871826171875
1630415912701,825.2014770507812,808.2783813476562,804.2490844726562,800.6226806640625
1630415912701,820.7692260742188,813.113525390625,803.4432373046875,776.0439453125
1630415912701,823.5897216796875,811.5018310546875,797.3992919921875,740.5860595703125
1630415912701,826.00732421875,815.1282348632812,805.8607788085938,790.1465454101562
1630415912701,812.3076782226562,813.91943359375,799.4139404296875,739.7802124023438
1630415912701,832.4542236328125,806.6666870117188,803.8461303710938,798.6080322265625
1630415912701,812.3076782226562,810.2930297851562,803.040283203125,755.091552734375
1630415912701,830.8424682617188,813.113525390625,799.4139404296875,765.970703125
1630415912701,814.7252807617188,813.113525390625,801.8314819335938,765.1648559570312
1630415912811,822.7838745117188,811.5018310546875,802.6373901367188,796.1904907226562
1630415912811,837.6923217773438,810.6959838867188,806.6666870117188,813.91943359375
1630415912811,809.89013671875,804.6520385742188,806.2637329101562,789.3406372070312
1630415912811,807.069580078125,796.5933837890625,808.2783813476562,769.5970458984375
1630415912811,817.94873046875,808.2783813476562,796.996337890625,751.062255859375
1630415912811,824.3956298828125,807.069580078125,801.4285888671875,762.3442993164062
1630415912811,807.87548828125,801.8314819335938,803.8461303710938,743.8095092773438
1630415912811,810.2930297851562,810.2930297851562,797.3992919921875,748.2417602539062
1630415912811,830.03662109375,809.4871826171875,800.6226806640625,778.05859375
1630415912826,789.3406372070312,796.1904907226562,803.4432373046875,778.8644409179688
1630415912826,785.3113403320312,803.4432373046875,803.4432373046875,749.047607421875
1630415912826,809.89013671875,807.4725341796875,805.4578857421875,794.5787353515625
1630415912826,790.5494384765625,803.040283203125,804.6520385742188,758.7179565429688
1630415912826,799.8168334960938,804.2490844726562,804.2490844726562,773.2234497070312
1630415912826,800.6226806640625,808.2783813476562,803.4432373046875,743.4066162109375
1630415912826,793.3699340820312,796.996337890625,803.040283203125,754.6886596679688
1630415912826,791.7582397460938,805.4578857421875,799.8168334960938,766.3735961914062
1630415912826,796.1904907226562,813.113525390625,798.6080322265625,745.018310546875
1630415912842,807.4725341796875,801.4285888671875,805.8607788085938,808.2783813476562
1630415912842,806.2637329101562,799.010986328125,811.90478515625,809.89013671875
1630415912842,798.2051391601562,800.6226806640625,806.6666870117188,805.054931640625
1630415912842,794.981689453125,807.4725341796875,808.6813354492188,751.062255859375
1630415912842,797.8021850585938,805.8607788085938,808.6813354492188,774.8351440429688
1630415912842,801.025634765625,803.4432373046875,805.8607788085938,774.4322509765625
1630415912873,796.5933837890625,805.4578857421875,807.069580078125,785.7142944335938
1630415912873,792.5640869140625,805.054931640625,807.87548828125,759.9267578125
1630415912873,806.6666870117188,804.2490844726562,803.8461303710938,763.5531005859375
1630415912873,805.4578857421875,805.4578857421875,807.4725341796875,811.90478515625
1630415912873,800.6226806640625,798.6080322265625,804.2490844726562,780.879150390625
1630415912873,798.6080322265625,806.2637329101562,811.098876953125,810.6959838867188
1630415912873,808.2783813476562,800.2197875976562,811.90478515625,821.1721801757812
1630415912873,807.87548828125,799.4139404296875,804.6520385742188,777.6557006835938
1630415912873,795.7875366210938,805.8607788085938,805.8607788085938,763.9560546875
1630415912873,808.2783813476562,805.4578857421875,806.6666870117188,782.4908447265625
1630415912873,808.6813354492188,802.6373901367188,805.8607788085938,800.2197875976562
1630415912873,815.1282348632812,808.6813354492188,806.6666870117188,805.8607788085938
1630415912873,795.3846435546875,806.6666870117188,807.87548828125,780.4761962890625
1630415912873,806.6666870117188,806.6666870117188,806.6666870117188,761.5384521484375
1630415912889,815.1282348632812,809.89013671875,805.8607788085938,808.2783813476562
1630415912889,814.7252807617188,809.084228515625,804.2490844726562,809.89013671875
1630415912889,803.4432373046875,807.069580078125,810.2930297851562,791.7582397460938
1630415912889,801.8314819335938,807.069580078125,807.4725341796875,754.2857055664062
1630415912889,796.5933837890625,805.4578857421875,803.4432373046875,748.6447143554688
1630415912889,797.3992919921875,805.8607788085938,808.2783813476562,808.2783813476562
1630415912889,808.6813354492188,805.8607788085938,801.8314819335938,753.8828125
1630415912889,809.084228515625,812.3076782226562,803.4432373046875,790.1465454101562
1630415912889,807.069580078125,803.040283203125,805.054931640625,722.4542236328125
1630415912889,814.7252807617188,811.5018310546875,806.2637329101562,829.2307739257812
1630415912967,807.069580078125,800.2197875976562,808.6813354492188,722.05126953125
1630415912967,816.3369750976562,814.7252807617188,803.8461303710938,736.5567626953125
1630415912967,809.89013671875,821.1721801757812,805.4578857421875,718.4249267578125
1630415912983,821.5750732421875,813.5164794921875,811.5018310546875,755.091552734375
1630415912983,821.5750732421875,818.3516235351562,809.4871826171875,752.2710571289062
1630415912983,820.3662719726562,802.2344360351562,807.069580078125,722.4542236328125
1630415912983,814.3223266601562,809.4871826171875,809.4871826171875,774.8351440429688
1630415912983,816.3369750976562,805.4578857421875,805.8607788085938,737.7655639648438
1630415912983,807.4725341796875,803.040283203125,797.3992919921875,703.91943359375
1630415912983,804.2490844726562,807.4725341796875,801.8314819335938,700.6959838867188
1630415912983,810.6959838867188,807.87548828125,805.4578857421875,733.3333129882812
1630415912983,818.3516235351562,805.4578857421875,807.4725341796875,701.90478515625
1630415912983,812.3076782226562,813.5164794921875,797.3992919921875,738.974365234375
1630415912983,814.3223266601562,816.7399291992188,808.2783813476562,729.7069702148438
1630415912983,818.7545776367188,807.4725341796875,806.2637329101562,766.3735961914062
1630415912983,813.91943359375,807.4725341796875,810.2930297851562,751.062255859375
1630415912983,808.6813354492188,812.3076782226562,803.4432373046875,724.8717651367188
1630415912983,803.4432373046875,807.87548828125,810.6959838867188,738.974365234375
1630415912983,816.3369750976562,801.8314819335938,809.89013671875,746.6300659179688
1630415912983,824.3956298828125,804.6520385742188,810.2930297851562,697.87548828125
1630415912983,794.5787353515625,809.89013671875,803.8461303710938,709.96337890625
1630415912983,821.5750732421875,800.6226806640625,810.6959838867188,724.8717651367188
1630415912998,814.7252807617188,816.7399291992188,794.1758422851562,735.3479614257812
1630415912998,809.4871826171875,816.3369750976562,796.5933837890625,757.106201171875
1630415913108,808.2783813476562,817.5457763671875,799.8168334960938,757.5091552734375
1630415913108,809.89013671875,819.96337890625,795.3846435546875,701.5018310546875
1630415913108,811.5018310546875,815.1282348632812,797.8021850585938,699.89013671875
1630415913108,817.94873046875,807.4725341796875,794.1758422851562,786.5201416015625
1630415913108,821.97802734375,812.3076782226562,808.6813354492188,804.6520385742188
1630415913108,811.5018310546875,810.6959838867188,793.7728881835938,754.2857055664062
1630415913123,820.3662719726562,821.1721801757812,794.1758422851562,760.7326049804688
1630415913123,813.91943359375,817.94873046875,792.5640869140625,807.069580078125
1630415913123,802.6373901367188,807.4725341796875,796.996337890625,730.5128173828125
1630415913123,818.3516235351562,815.5311279296875,805.4578857421875,770.4029541015625
1630415913123,807.069580078125,808.2783813476562,793.7728881835938,761.1355590820312
1630415913123,814.3223266601562,811.90478515625,798.2051391601562,816.3369750976562
1630415913123,814.7252807617188,809.4871826171875,804.6520385742188,757.106201171875
1630415913123,810.2930297851562,809.4871826171875,797.3992919921875,809.4871826171875
1630415913123,811.098876953125,813.91943359375,798.2051391601562,732.5274658203125
1630415913123,818.7545776367188,808.2783813476562,795.7875366210938,799.4139404296875
1630415913123,817.1428833007812,819.5604248046875,794.981689453125,736.959716796875
1630415913123,809.89013671875,817.1428833007812,801.4285888671875,794.1758422851562
1630415913123,821.1721801757812,824.3956298828125,789.7435913085938,768.3883056640625
1630415913123,818.3516235351562,812.7106323242188,799.010986328125,820.3662719726562
1630415913123,799.4139404296875,813.91943359375,796.996337890625,756.3003540039062
1630415913123,801.025634765625,805.8607788085938,794.5787353515625,769.1941528320312
1630415913123,815.1282348632812,812.3076782226562,799.8168334960938,782.087890625
1630415913123,813.91943359375,813.91943359375,800.2197875976562,786.5201416015625
1630415913186,800.6226806640625,815.5311279296875,795.7875366210938,779.6703491210938
1630415913186,813.113525390625,814.7252807617188,793.7728881835938,808.6813354492188
1630415913186,817.94873046875,811.90478515625,801.8314819335938,820.3662719726562
1630415913186,811.098876953125,813.5164794921875,796.996337890625,776.8497924804688
1630415913186,816.3369750976562,813.5164794921875,798.2051391601562,791.7582397460938
1630415913186,811.90478515625,815.93408203125,792.5640869140625,797.8021850585938
1630415913186,802.2344360351562,812.7106323242188,799.010986328125,770.0
1630415913201,808.2783813476562,814.3223266601562,792.967041015625,799.8168334960938
1630415913201,798.2051391601562,810.2930297851562,788.937744140625,759.9267578125
1630415913201,798.6080322265625,809.084228515625,788.5347900390625,760.7326049804688
1630415913201,809.084228515625,807.4725341796875,792.967041015625,757.106201171875
1630415913201,799.010986328125,807.069580078125,789.7435913085938,788.937744140625
1630415913201,806.2637329101562,811.5018310546875,793.7728881835938,791.7582397460938
1630415913201,796.996337890625,810.2930297851562,792.1611938476562,757.912109375
1630415913217,803.040283203125,809.084228515625,797.8021850585938,759.5238037109375
1630415913217,798.2051391601562,811.5018310546875,794.5787353515625,803.8461303710938
1630415913217,828.02197265625,813.5164794921875,805.4578857421875,853.4066162109375
1630415913217,797.3992919921875,811.5018310546875,795.7875366210938,829.6337280273438
1630415913217,803.8461303710938,805.8607788085938,803.8461303710938,817.1428833007812
1630415913217,812.7106323242188,805.8607788085938,800.6226806640625,793.7728881835938
1630415913217,821.97802734375,814.7252807617188,800.6226806640625,826.8131713867188
1630415913217,808.2783813476562,805.054931640625,798.2051391601562,817.94873046875
1630415913217,782.4908447265625,818.7545776367188,791.7582397460938,804.2490844726562
1630415913217,801.8314819335938,809.084228515625,792.5640869140625,785.3113403320312
1630415913217,818.3516235351562,807.4725341796875,805.054931640625,845.7509155273438
1630415913217,802.6373901367188,805.8607788085938,801.8314819335938,787.7289428710938
1630415913217,838.09521484375,811.90478515625,810.2930297851562,846.1538696289062
1630415913217,801.025634765625,814.3223266601562,798.2051391601562,768.3883056640625
1630415913217,796.996337890625,816.7399291992188,796.1904907226562,799.010986328125
1630415913233,821.1721801757812,801.025634765625,807.4725341796875,844.945068359375
1630415913233,838.901123046875,809.4871826171875,807.4725341796875,804.2490844726562
1630415913233,812.3076782226562,811.098876953125,800.2197875976562,816.7399291992188
1630415913233,809.084228515625,811.098876953125,800.2197875976562,809.084228515625
1630415913233,819.96337890625,816.7399291992188,801.4285888671875,786.5201416015625
1630415913233,817.1428833007812,807.87548828125,803.040283203125,835.6776733398438
1630415913233,814.7252807617188,815.5311279296875,800.6226806640625,802.6373901367188
1630415913248,803.040283203125,799.010986328125,801.025634765625,807.4725341796875
1630415913248,815.5311279296875,804.6520385742188,805.054931640625,801.025634765625
1630415913248,815.93408203125,805.8607788085938,809.89013671875,781.6849975585938
1630415913248,812.7106323242188,803.4432373046875,805.8607788085938,845.3479614257812
1630415913264,798.2051391601562,800.2197875976562,798.6080322265625,759.9267578125
1630415913264,800.2197875976562,803.4432373046875,801.8314819335938,775.2380981445312
1630415913264,790.5494384765625,801.025634765625,800.6226806640625,799.4139404296875
1630415913264,799.010986328125,802.6373901367188,804.2490844726562,823.99267578125
1630415913264,794.1758422851562,797.8021850585938,799.8168334960938,774.029296875
1630415913264,801.8314819335938,800.2197875976562,801.025634765625,782.893798828125
1630415913264,805.4578857421875,806.6666870117188,805.4578857421875,807.069580078125
1630415913264,796.5933837890625,799.8168334960938,798.6080322265625,757.5091552734375
1630415913279,803.8461303710938,809.89013671875,804.2490844726562,804.2490844726562
1630415913279,794.981689453125,805.054931640625,809.084228515625,764.7619018554688
1630415913279,799.4139404296875,813.113525390625,807.4725341796875,801.025634765625
1630415913279,801.4285888671875,802.2344360351562,809.084228515625,753.8828125
1630415913295,793.7728881835938,810.2930297851562,805.054931640625,765.5677490234375
1630415913295,801.8314819335938,808.2783813476562,800.2197875976562,780.0732421875
1630415913295,803.8461303710938,807.4725341796875,806.2637329101562,755.8974609375
1630415913295,804.2490844726562,800.2197875976562,806.6666870117188,772.8204956054688
1630415913295,797.8021850585938,806.6666870117188,805.4578857421875,788.937744140625
1630415913295,797.8021850585938,803.4432373046875,804.2490844726562,741.7948608398438
1630415913295,811.90478515625,805.054931640625,804.6520385742188,753.076904296875
1630415913295,802.6373901367188,809.084228515625,802.2344360351562,797.3992919921875
1630415913342,801.4285888671875,804.6520385742188,802.6373901367188,754.6886596679688
1630415913358,805.054931640625,803.4432373046875,807.87548828125,788.1318969726562
1630415913358,819.5604248046875,818.3516235351562,812.7106323242188,810.2930297851562
1630415913358,797.8021850585938,798.2051391601562,807.069580078125,718.02197265625
1630415913358,801.8314819335938,802.6373901367188,798.2051391601562,772.0146484375
1630415913358,793.3699340820312,810.2930297851562,809.4871826171875,749.8534545898438
1630415913358,800.6226806640625,799.010986328125,800.6226806640625,729.7069702148438
1630415913358,809.89013671875,814.3223266601562,813.113525390625,778.8644409179688
1630415913358,793.3699340820312,805.054931640625,804.6520385742188,797.3992919921875
1630415913358,809.89013671875,807.069580078125,799.4139404296875,779.2673950195312
1630415913358,796.5933837890625,803.040283203125,809.4871826171875,763.1502075195312
1630415913358,807.4725341796875,807.4725341796875,811.5018310546875,764.7619018554688
1630415913404,808.2783813476562,812.7106323242188,808.2783813476562,801.025634765625
1630415913404,805.4578857421875,817.1428833007812,810.6959838867188,765.1648559570312
1630415913420,813.5164794921875,808.6813354492188,813.91943359375,746.2271118164062
1630415913420,778.05859375,789.7435913085938,811.90478515625,747.4359130859375
1630415913420,805.8607788085938,805.4578857421875,796.1904907226562,794.1758422851562
1630415913420,815.1282348632812,799.8168334960938,805.054931640625,773.2234497070312
1630415913420,803.4432373046875,794.5787353515625,812.3076782226562,777.2527465820312
1630415913420,808.2783813476562,807.87548828125,801.8314819335938,791.7582397460938
1630415913420,779.6703491210938,793.7728881835938,803.8461303710938,751.4652099609375
1630415913436,772.4176025390625,807.069580078125,807.069580078125,716.4102783203125
1630415913436,780.0732421875,793.3699340820312,808.6813354492188,787.3259887695312
1630415913436,766.3735961914062,799.4139404296875,813.113525390625,776.0439453125
1630415913451,765.5677490234375,800.6226806640625,805.8607788085938,699.89013671875
1630415913451,759.5238037109375,782.4908447265625,801.025634765625,714.7985229492188
1630415913451,745.8241577148438,803.4432373046875,792.967041015625,722.8571166992188
1630415913451,760.7326049804688,794.5787353515625,819.5604248046875,763.5531005859375
1630415913451,745.8241577148438,803.4432373046875,801.025634765625,701.098876953125
1630415913451,762.3442993164062,799.010986328125,805.054931640625,745.4212646484375
1630415913451,753.8828125,797.3992919921875,800.6226806640625,755.091552734375
1630415913451,761.1355590820312,797.8021850585938,811.5018310546875,750.6593627929688
1630415913451,751.4652099609375,796.996337890625,814.3223266601562,724.4688720703125
1630415913451,756.3003540039062,796.5933837890625,809.89013671875,723.2600708007812
1630415913451,759.5238037109375,801.4285888671875,816.3369750976562,769.5970458984375
1630415913467,761.94140625,783.2966918945312,819.1575317382812,719.6337280273438
1630415913529,778.8644409179688,793.7728881835938,823.99267578125,760.7326049804688
1630415913545,786.923095703125,805.054931640625,809.4871826171875,736.1538696289062
1630415913545,785.3113403320312,802.2344360351562,811.5018310546875,743.003662109375
1630415913545,778.8644409179688,798.2051391601562,813.91943359375,780.4761962890625
1630415913545,797.3992919921875,794.1758422851562,808.6813354492188,812.3076782226562
1630415913545,792.1611938476562,794.5787353515625,807.069580078125,792.5640869140625
1630415913545,775.6410522460938,802.2344360351562,810.6959838867188,761.94140625
1630415913545,793.7728881835938,804.2490844726562,809.4871826171875,771.6116943359375
1630415913561,809.89013671875,813.113525390625,803.040283203125,795.3846435546875
1630415913561,818.7545776367188,807.87548828125,802.2344360351562,796.5933837890625
1630415913561,778.4615478515625,796.996337890625,809.084228515625,735.7509155273438
1630415913561,782.087890625,796.1904907226562,806.2637329101562,748.2417602539062
1630415913576,792.1611938476562,804.6520385742188,813.91943359375,770.4029541015625
1630415913576,802.6373901367188,803.8461303710938,804.2490844726562,787.3259887695312
1630415913576,798.6080322265625,807.87548828125,807.069580078125,774.029296875
1630415913576,795.7875366210938,815.1282348632812,801.8314819335938,767.9853515625
1630415913576,804.2490844726562,801.8314819335938,800.6226806640625,789.3406372070312
1630415913576,798.6080322265625,802.2344360351562,802.2344360351562,770.8058471679688
1630415913576,789.3406372070312,806.6666870117188,802.2344360351562,753.4798583984375
1630415913576,801.025634765625,803.4432373046875,803.4432373046875,759.120849609375
1630415913576,795.7875366210938,804.6520385742188,800.6226806640625,735.3479614257812
1630415913576,811.5018310546875,806.6666870117188,800.2197875976562,750.2564086914062
1630415913576,797.8021850585938,806.2637329101562,805.8607788085938,776.8497924804688
1630415913576,790.5494384765625,808.2783813476562,809.89013671875,790.5494384765625
1630415913592,783.6996459960938,804.6520385742188,794.981689453125,732.930419921875
1630415913608,797.3992919921875,803.8461303710938,792.967041015625,794.981689453125
1630415913608,801.025634765625,807.4725341796875,802.6373901367188,788.1318969726562
1630415913608,795.3846435546875,806.2637329101562,795.7875366210938,768.7911987304688
1630415913608,802.6373901367188,811.098876953125,796.1904907226562,774.4322509765625
1630415913608,793.7728881835938,808.2783813476562,804.6520385742188,752.6740112304688
1630415913608,793.3699340820312,807.4725341796875,802.6373901367188,762.7472534179688
1630415913608,789.3406372070312,807.87548828125,796.1904907226562,735.3479614257812
1630415913608,801.4285888671875,803.4432373046875,796.5933837890625,787.3259887695312
1630415913623,799.8168334960938,808.6813354492188,802.2344360351562,768.3883056640625
1630415913623,801.8314819335938,806.6666870117188,802.6373901367188,768.7911987304688
1630415913639,786.1171875,797.8021850585938,791.7582397460938,788.937744140625
1630415913654,805.054931640625,805.4578857421875,803.4432373046875,787.7289428710938
1630415913654,811.5018310546875,807.4725341796875,803.040283203125,773.6264038085938
1630415913654,813.5164794921875,806.6666870117188,811.098876953125,795.3846435546875
1630415913654,805.054931640625,815.5311279296875,798.2051391601562,793.3699340820312
1630415913654,802.6373901367188,806.2637329101562,806.6666870117188,800.6226806640625
1630415913654,795.7875366210938,818.3516235351562,797.8021850585938,790.1465454101562
1630415913654,807.87548828125,809.89013671875,803.8461303710938,747.032958984375
1630415913654,805.4578857421875,808.2783813476562,790.1465454101562,771.6116943359375
1630415913654,806.2637329101562,812.3076782226562,805.054931640625,772.4176025390625
1630415913654,794.981689453125,801.8314819335938,795.3846435546875,756.7033081054688
1630415913654,801.8314819335938,802.6373901367188,789.7435913085938,791.3552856445312
1630415913670,801.4285888671875,802.6373901367188,801.4285888671875,813.113525390625
1630415913670,815.5311279296875,808.2783813476562,807.4725341796875,781.6849975585938
1630415913670,806.2637329101562,805.8607788085938,806.2637329101562,767.1795043945312
1630415913670,817.94873046875,806.2637329101562,802.2344360351562,813.113525390625
1630415913670,792.1611938476562,803.8461303710938,808.2783813476562,788.937744140625
1630415913686,806.6666870117188,805.054931640625,804.6520385742188,780.0732421875
1630415913686,809.89013671875,810.6959838867188,805.8607788085938,765.5677490234375
1630415913686,817.1428833007812,809.4871826171875,807.069580078125,818.3516235351562
1630415913686,814.3223266601562,804.6520385742188,804.6520385742188,780.0732421875
1630415913686,805.4578857421875,809.084228515625,801.8314819335938,765.5677490234375
1630415913686,821.1721801757812,807.4725341796875,807.87548828125,816.3369750976562
1630415913686,806.6666870117188,805.8607788085938,803.8461303710938,790.952392578125
1630415913717,798.2051391601562,807.069580078125,814.3223266601562,767.1795043945312
1630415913717,797.3992919921875,801.4285888671875,806.6666870117188,755.4945068359375
1630415913717,817.94873046875,797.3992919921875,807.4725341796875,796.996337890625
1630415913717,805.054931640625,804.2490844726562,811.5018310546875,778.4615478515625
1630415913717,804.2490844726562,797.3992919921875,805.8607788085938,775.2380981445312
1630415913717,823.1868286132812,803.8461303710938,798.2051391601562,809.4871826171875
1630415913732,806.2637329101562,794.5787353515625,815.5311279296875,797.3992919921875
1630415913732,813.91943359375,799.010986328125,801.8314819335938,778.05859375
1630415913732,799.8168334960938,803.040283203125,817.94873046875,785.7142944335938
1630415913732,805.4578857421875,805.054931640625,810.6959838867188,784.908447265625
1630415913732,826.4102783203125,813.5164794921875,801.4285888671875,801.025634765625
1630415913732,824.3956298828125,817.1428833007812,801.8314819335938,813.91943359375
1630415913764,792.967041015625,801.4285888671875,803.8461303710938,812.7106323242188
1630415913764,803.040283203125,802.2344360351562,808.2783813476562,788.937744140625
1630415913764,805.4578857421875,799.8168334960938,803.8461303710938,804.2490844726562
1630415913764,814.3223266601562,798.2051391601562,809.89013671875,808.6813354492188
1630415913764,808.2783813476562,794.1758422851562,813.5164794921875,822.7838745117188
1630415913764,815.93408203125,799.4139404296875,811.5018310546875,787.7289428710938
1630415913764,795.7875366210938,798.6080322265625,802.6373901367188,791.7582397460938
1630415913764,800.2197875976562,803.040283203125,803.4432373046875,800.2197875976562
1630415913764,800.6226806640625,796.5933837890625,809.4871826171875,820.7692260742188
1630415913764,794.1758422851562,809.4871826171875,804.6520385742188,796.996337890625
1630415913779,790.5494384765625,799.010986328125,801.8314819335938,776.8497924804688
1630415913779,790.1465454101562,797.8021850585938,803.040283203125,797.8021850585938
1630415913826,810.6959838867188,794.5787353515625,801.4285888671875,795.3846435546875
1630415913826,800.2197875976562,797.3992919921875,803.4432373046875,781.6849975585938
1630415913857,811.098876953125,807.069580078125,811.5018310546875,797.3992919921875
1630415913857,802.6373901367188,806.2637329101562,803.4432373046875,796.996337890625
1630415913857,806.2637329101562,801.025634765625,808.6813354492188,803.040283203125
1630415913857,793.3699340820312,799.010986328125,807.069580078125,784.908447265625
1630415913857,809.4871826171875,801.8314819335938,810.2930297851562,815.5311279296875
1630415913857,808.6813354492188,805.8607788085938,814.3223266601562,814.3223266601562
1630415913857,799.8168334960938,799.8168334960938,813.113525390625,792.1611938476562
1630415913857,796.5933837890625,804.6520385742188,812.3076782226562,815.5311279296875
1630415913857,804.2490844726562,807.4725341796875,813.91943359375,822.7838745117188
1630415913857,799.8168334960938,803.4432373046875,800.2197875976562,780.0732421875
1630415913889,798.6080322265625,802.6373901367188,815.93408203125,788.5347900390625
1630415913889,803.4432373046875,811.098876953125,803.4432373046875,793.7728881835938
1630415913889,804.2490844726562,806.2637329101562,809.4871826171875,828.4249267578125
1630415913889,807.069580078125,813.5164794921875,803.4432373046875,813.113525390625
1630415913889,807.069580078125,804.6520385742188,803.4432373046875,799.010986328125
1630415913889,799.010986328125,807.4725341796875,813.5164794921875,808.2783813476562
1630415913889,811.098876953125,813.113525390625,806.2637329101562,813.5164794921875
1630415913889,809.89013671875,808.6813354492188,801.8314819335938,820.3662719726562
1630415913889,804.6520385742188,804.6520385742188,806.6666870117188,824.7985229492188
1630415913904,819.1575317382812,810.6959838867188,805.8607788085938,801.4285888671875
1630415913904,810.2930297851562,809.084228515625,803.8461303710938,792.5640869140625
1630415913904,808.2783813476562,806.2637329101562,802.2344360351562,786.923095703125
1630415913951,812.7106323242188,801.025634765625,805.8607788085938,800.6226806640625
1630415913951,815.93408203125,805.054931640625,803.4432373046875,803.8461303710938
1630415913951,814.3223266601562,803.040283203125,805.8607788085938,789.7435913085938
1630415913967,809.89013671875,806.6666870117188,797.3992919921875,775.6410522460938
1630415913967,749.8534545898438,809.4871826171875,805.8607788085938,754.6886596679688
1630415913967,806.2637329101562,807.069580078125,790.952392578125,797.3992919921875
1630415913967,779.6703491210938,805.4578857421875,798.2051391601562,761.94140625
1630415913967,800.2197875976562,806.6666870117188,787.7289428710938,784.1025390625
1630415913967,791.7582397460938,796.5933837890625,803.4432373046875,780.879150390625
1630415913967,759.9267578125,813.5164794921875,802.2344360351562,753.076904296875
1630415913967,808.6813354492188,811.5018310546875,802.6373901367188,790.1465454101562
1630415913967,766.3735961914062,807.4725341796875,805.054931640625,767.5823974609375
1630415913967,804.2490844726562,804.2490844726562,803.4432373046875,797.8021850585938
1630415913998,788.5347900390625,810.6959838867188,802.6373901367188,773.2234497070312
1630415913998,803.040283203125,801.025634765625,808.2783813476562,764.7619018554688
1630415913998,816.3369750976562,815.5311279296875,799.8168334960938,796.5933837890625
1630415913998,770.8058471679688,807.069580078125,797.3992919921875,770.8058471679688
1630415913998,799.8168334960938,811.5018310546875,805.4578857421875,784.908447265625
1630415913998,766.3735961914062,807.069580078125,795.7875366210938,757.106201171875
1630415913998,807.87548828125,800.6226806640625,802.6373901367188,777.2527465820312
1630415913998,777.6557006835938,805.054931640625,801.4285888671875,772.8204956054688
1630415913998,810.6959838867188,813.91943359375,799.4139404296875,787.3259887695312
1630415913998,761.94140625,811.90478515625,795.3846435546875,750.6593627929688
1630415913998,783.2966918945312,801.4285888671875,801.8314819335938,778.4615478515625
1630415913998,787.7289428710938,811.90478515625,801.8314819335938,763.9560546875
1630415914014,797.3992919921875,815.93408203125,797.8021850585938,788.1318969726562
1630415914014,788.937744140625,803.4432373046875,799.4139404296875,773.6264038085938
1630415914014,792.1611938476562,809.4871826171875,798.6080322265625,784.908447265625
1630415914014,798.6080322265625,813.91943359375,798.6080322265625,791.3552856445312
1630415914014,794.1758422851562,811.5018310546875,806.6666870117188,767.1795043945312
1630415914029,805.054931640625,807.87548828125,797.3992919921875,779.2673950195312
1630415914029,792.5640869140625,811.90478515625,804.6520385742188,767.9853515625
1630415914029,805.054931640625,806.2637329101562,795.7875366210938,786.1171875
1630415914029,800.6226806640625,807.87548828125,800.2197875976562,789.7435913085938
1630415914029,793.3699340820312,807.87548828125,801.4285888671875,787.7289428710938
1630415914029,795.7875366210938,805.8607788085938,799.010986328125,791.7582397460938
1630415914061,796.5933837890625,802.6373901367188,800.2197875976562,799.8168334960938
1630415914076,796.5933837890625,800.6226806640625,806.6666870117188,799.010986328125
1630415914076,791.7582397460938,799.8168334960938,804.2490844726562,799.010986328125
1630415914076,787.7289428710938,797.8021850585938,810.2930297851562,798.2051391601562
1630415914076,802.6373901367188,799.010986328125,793.7728881835938,806.6666870117188
1630415914076,804.6520385742188,800.6226806640625,801.4285888671875,813.113525390625
1630415914076,788.937744140625,800.6226806640625,801.8314819335938,786.1171875
1630415914076,801.025634765625,798.6080322265625,800.6226806640625,812.3076782226562
1630415914076,791.7582397460938,801.8314819335938,800.2197875976562,830.03662109375
1630415914076,805.8607788085938,809.084228515625,804.2490844726562,820.7692260742188
1630415914076,790.5494384765625,808.2783813476562,800.6226806640625,815.1282348632812
1630415914076,796.996337890625,807.069580078125,793.3699340820312,799.8168334960938
1630415914076,795.7875366210938,789.7435913085938,800.2197875976562,793.7728881835938
1630415914076,783.6996459960938,795.3846435546875,800.6226806640625,786.1171875
1630415914076,784.908447265625,797.3992919921875,792.967041015625,771.2088012695312
1630415914076,784.908447265625,804.6520385742188,799.8168334960938,781.6849975585938
1630415914076,780.0732421875,796.5933837890625,801.025634765625,790.1465454101562
1630415914076,796.1904907226562,801.8314819335938,794.1758422851562,813.113525390625
1630415914076,784.1025390625,801.025634765625,794.1758422851562,776.4468994140625
1630415914076,793.3699340820312,800.2197875976562,810.2930297851562,798.2051391601562
1630415914076,796.1904907226562,803.4432373046875,802.2344360351562,798.2051391601562
1630415914076,782.087890625,797.8021850585938,799.8168334960938,790.952392578125
1630415914076,803.8461303710938,801.8314819335938,806.6666870117188,813.91943359375
1630415914186,789.7435913085938,806.2637329101562,801.8314819335938,796.1904907226562
1630415914186,784.1025390625,798.2051391601562,799.8168334960938,778.4615478515625
1630415914201,796.996337890625,801.025634765625,807.4725341796875,786.1171875
1630415914201,787.3259887695312,805.054931640625,804.6520385742188,791.7582397460938
1630415914201,801.4285888671875,813.113525390625,796.996337890625,789.7435913085938
1630415914201,800.2197875976562,810.6959838867188,801.8314819335938,794.981689453125
1630415914201,804.2490844726562,819.1575317382812,801.8314819335938,792.1611938476562
1630415914201,800.2197875976562,809.89013671875,807.4725341796875,798.6080322265625
1630415914201,791.7582397460938,805.054931640625,797.8021850585938,802.6373901367188
1630415914201,795.7875366210938,799.8168334960938,801.4285888671875,788.1318969726562
1630415914201,800.2197875976562,813.91943359375,805.4578857421875,799.8168334960938
1630415914201,791.3552856445312,806.6666870117188,807.87548828125,793.7728881835938
1630415914217,811.90478515625,804.2490844726562,784.1025390625,794.981689453125
1630415914217,787.7289428710938,805.8607788085938,793.3699340820312,790.1465454101562
1630415914217,805.4578857421875,799.8168334960938,782.4908447265625,791.3552856445312
1630415914217,815.5311279296875,813.5164794921875,796.996337890625,802.2344360351562
1630415914217,801.4285888671875,796.1904907226562,791.3552856445312,802.2344360351562
1630415914217,796.5933837890625,808.2783813476562,802.2344360351562,807.87548828125
1630415914217,803.8461303710938,807.069580078125,793.7728881835938,799.8168334960938
1630415914217,813.5164794921875,796.5933837890625,789.7435913085938,803.8461303710938
1630415914217,812.7106323242188,802.2344360351562,794.981689453125,779.6703491210938
1630415914217,802.6373901367188,812.7106323242188,799.010986328125,805.054931640625
1630415914232,805.054931640625,807.87548828125,792.5640869140625,790.1465454101562
1630415914232,805.4578857421875,797.3992919921875,792.5640869140625,797.8021850585938
1630415914232,810.6959838867188,806.6666870117188,787.7289428710938,806.2637329101562
1630415914232,800.6226806640625,813.5164794921875,792.5640869140625,821.1721801757812
1630415914232,813.113525390625,809.084228515625,794.981689453125,819.1575317382812
1630415914232,791.7582397460938,809.89013671875,792.1611938476562,796.996337890625
1630415914232,809.89013671875,801.025634765625,786.1171875,817.5457763671875
1630415914232,802.6373901367188,814.7252807617188,795.3846435546875,801.025634765625
1630415914232,804.2490844726562,798.6080322265625,776.8497924804688,801.4285888671875
1630415914232,813.91943359375,807.069580078125,784.5054931640625,812.7106323242188
1630415914232,804.2490844726562,810.2930297851562,796.996337890625,819.96337890625
1630415914232,800.6226806640625,811.5018310546875,782.4908447265625,804.6520385742188
1630415914232,813.113525390625,812.7106323242188,796.5933837890625,785.7142944335938
1630415914232,804.6520385742188,819.5604248046875,799.010986328125,789.3406372070312
1630415914279,817.1428833007812,801.025634765625,793.3699340820312,825.2014770507812
1630415914279,804.6520385742188,821.5750732421875,801.4285888671875,799.8168334960938
1630415914279,808.2783813476562,816.3369750976562,796.1904907226562,821.97802734375
1630415914279,821.5750732421875,801.8314819335938,794.5787353515625,815.5311279296875
1630415914295,815.5311279296875,813.113525390625,802.2344360351562,804.6520385742188
1630415914295,825.2014770507812,808.2783813476562,794.981689453125,786.923095703125
1630415914295,820.7692260742188,813.5164794921875,801.8314819335938,784.908447265625
1630415914295,818.3516235351562,815.1282348632812,796.1904907226562,792.1611938476562
1630415914295,827.6190185546875,810.6959838867188,796.1904907226562,805.4578857421875
1630415914295,822.7838745117188,815.5311279296875,793.3699340820312,785.7142944335938
1630415914295,823.1868286132812,809.4871826171875,794.1758422851562,792.5640869140625
1630415914295,822.7838745117188,811.90478515625,796.1904907226562,796.1904907226562
1630415914326,803.8461303710938,811.5018310546875,799.8168334960938,823.99267578125
1630415914326,827.2161254882812,811.5018310546875,794.5787353515625,815.93408203125
1630415914326,810.2930297851562,821.97802734375,790.952392578125,804.6520385742188
1630415914326,819.96337890625,823.99267578125,799.8168334960938,807.069580078125
1630415914326,815.5311279296875,814.3223266601562,798.6080322265625,815.1282348632812
1630415914326,809.084228515625,826.8131713867188,795.3846435546875,787.7289428710938
1630415914326,788.5347900390625,814.7252807617188,798.6080322265625,770.0
1630415914326,802.2344360351562,821.1721801757812,799.010986328125,813.91943359375
1630415914326,829.6337280273438,820.3662719726562,804.6520385742188,824.7985229492188
1630415914326,811.90478515625,826.8131713867188,794.5787353515625,797.3992919921875
1630415914342,788.937744140625,810.6959838867188,802.2344360351562,796.996337890625
1630415914342,812.7106323242188,825.6043701171875,806.2637329101562,810.2930297851562
1630415914357,814.3223266601562,821.97802734375,799.4139404296875,811.098876953125
1630415914357,817.94873046875,810.2930297851562,792.5640869140625,792.967041015625
1630415914357,803.040283203125,804.2490844726562,791.3552856445312,778.4615478515625
1630415914357,812.3076782226562,811.90478515625,797.3992919921875,792.5640869140625
1630415914357,823.99267578125,809.084228515625,792.967041015625,788.937744140625
1630415914357,805.4578857421875,815.5311279296875,795.3846435546875,794.981689453125
1630415914357,810.6959838867188,819.1575317382812,799.4139404296875,813.113525390625
1630415914357,819.5604248046875,823.5897216796875,798.2051391601562,811.90478515625
1630415914357,811.098876953125,817.5457763671875,799.8168334960938,821.97802734375
1630415914357,803.4432373046875,806.6666870117188,795.3846435546875,781.2820434570312
1630415914357,807.87548828125,816.3369750976562,798.2051391601562,809.89013671875
1630415914357,804.2490844726562,811.098876953125,791.7582397460938,788.1318969726562
1630415914482,815.93408203125,812.3076782226562,794.981689453125,808.6813354492188
1630415914482,814.3223266601562,813.113525390625,796.1904907226562,819.1575317382812
1630415914498,799.8168334960938,819.5604248046875,796.996337890625,780.879150390625
1630415914498,793.7728881835938,816.3369750976562,796.1904907226562,770.0
1630415914498,821.5750732421875,810.6959838867188,794.5787353515625,797.8021850585938
1630415914498,807.87548828125,811.90478515625,798.2051391601562,802.6373901367188
1630415914498,815.1282348632812,813.113525390625,796.5933837890625,785.3113403320312
1630415914498,805.054931640625,817.5457763671875,797.8021850585938,806.6666870117188
1630415914498,807.87548828125,813.5164794921875,799.8168334960938,798.2051391601562
1630415914498,813.113525390625,810.6959838867188,794.981689453125,817.94873046875
1630415914498,807.4725341796875,818.3516235351562,797.8021850585938,799.8168334960938
1630415914514,798.6080322265625,806.6666870117188,801.4285888671875,785.3113403320312
1630415914532,803.8461303710938,814.7252807617188,788.5347900390625,795.3846435546875
1630415914532,795.7875366210938,808.2783813476562,796.1904907226562,803.040283203125
1630415914532,800.6226806640625,810.2930297851562,797.8021850585938,797.8021850585938
1630415914532,792.967041015625,808.6813354492188,795.7875366210938,785.7142944335938
1630415914532,805.8607788085938,806.2637329101562,794.5787353515625,807.069580078125
1630415914532,805.8607788085938,806.6666870117188,797.8021850585938,805.8607788085938
1630415914548,811.90478515625,809.084228515625,791.3552856445312,795.7875366210938
1630415914548,806.6666870117188,811.098876953125,793.7728881835938,784.908447265625
1630415914548,804.6520385742188,809.084228515625,789.7435913085938,815.1282348632812
1630415914548,794.5787353515625,798.2051391601562,788.5347900390625,768.7911987304688
1630415914548,794.981689453125,797.8021850585938,788.937744140625,773.6264038085938
1630415914548,811.90478515625,809.89013671875,793.7728881835938,805.4578857421875
1630415914548,796.1904907226562,800.2197875976562,790.952392578125,797.3992919921875
1630415914548,811.5018310546875,812.7106323242188,787.7289428710938,787.7289428710938
1630415914548,806.2637329101562,806.2637329101562,788.1318969726562,801.8314819335938
1630415914548,811.90478515625,807.87548828125,790.952392578125,799.4139404296875
1630415914548,799.4139404296875,815.5311279296875,797.8021850585938,809.89013671875
1630415914548,791.7582397460938,805.8607788085938,792.5640869140625,791.3552856445312
1630415914564,802.2344360351562,805.8607788085938,788.1318969726562,791.3552856445312
1630415914564,811.90478515625,818.7545776367188,797.8021850585938,811.5018310546875
1630415914564,810.2930297851562,814.3223266601562,794.981689453125,805.8607788085938
1630415914564,813.5164794921875,813.91943359375,789.3406372070312,824.3956298828125
1630415914564,811.90478515625,808.6813354492188,783.2966918945312,821.1721801757812
1630415914610,801.025634765625,807.87548828125,799.8168334960938,813.91943359375
1630415914626,809.084228515625,808.2783813476562,796.996337890625,808.2783813476562
1630415914626,793.3699340820312,804.6520385742188,792.5640869140625,791.3552856445312
1630415914626,805.054931640625,809.084228515625,799.8168334960938,805.054931640625
1630415914626,803.8461303710938,808.6813354492188,794.981689453125,805.4578857421875
1630415914626,805.4578857421875,802.2344360351562,788.937744140625,811.5018310546875
1630415914626,806.6666870117188,808.6813354492188,794.1758422851562,824.3956298828125
1630415914626,806.2637329101562,813.113525390625,793.3699340820312,791.3552856445312
1630415914626,803.040283203125,811.90478515625,781.2820434570312,825.2014770507812
1630415914626,803.040283203125,806.6666870117188,790.1465454101562,810.6959838867188
1630415914626,804.6520385742188,805.8607788085938,795.3846435546875,799.8168334960938
1630415914626,796.996337890625,806.6666870117188,796.5933837890625,816.3369750976562
1630415914657,805.8607788085938,811.5018310546875,796.5933837890625,801.025634765625
1630415914657,784.5054931640625,805.054931640625,791.3552856445312,793.3699340820312
1630415914657,802.6373901367188,813.113525390625,787.7289428710938,822.7838745117188
1630415914657,796.996337890625,807.069580078125,792.5640869140625,795.7875366210938
1630415914657,815.93408203125,804.2490844726562,788.1318969726562,800.6226806640625
1630415914657,804.2490844726562,806.6666870117188,799.010986328125,793.7728881835938
1630415914657,784.5054931640625,801.4285888671875,792.5640869140625,815.1282348632812
1630415914657,796.1904907226562,804.2490844726562,796.996337890625,792.1611938476562
1630415914673,782.4908447265625,795.3846435546875,798.2051391601562,812.7106323242188
1630415914673,789.7435913085938,794.5787353515625,796.5933837890625,815.1282348632812
1630415914673,788.5347900390625,803.8461303710938,800.2197875976562,811.90478515625
1630415914673,779.6703491210938,799.4139404296875,797.3992919921875,821.5750732421875
1630415914673,797.3992919921875,805.8607788085938,797.3992919921875,791.7582397460938
1630415914673,783.2966918945312,800.6226806640625,799.8168334960938,792.967041015625
1630415914673,773.6264038085938,805.8607788085938,798.6080322265625,805.8607788085938
1630415914673,788.5347900390625,800.2197875976562,799.4139404296875,796.1904907226562
1630415914673,809.084228515625,808.2783813476562,794.5787353515625,801.8314819335938
1630415914673,780.879150390625,806.6666870117188,804.2490844726562,782.087890625
1630415914688,823.1868286132812,808.2783813476562,788.937744140625,803.8461303710938
1630415914688,789.7435913085938,800.6226806640625,795.7875366210938,820.3662719726562
1630415914688,788.5347900390625,792.1611938476562,791.3552856445312,807.4725341796875
1630415914688,774.8351440429688,790.1465454101562,782.087890625,793.7728881835938
1630415914688,774.4322509765625,808.2783813476562,801.025634765625,784.5054931640625
1630415914688,792.967041015625,803.040283203125,801.4285888671875,820.3662719726562
1630415914735,763.1502075195312,798.6080322265625,792.967041015625,808.2783813476562
1630415914735,784.1025390625,792.1611938476562,798.6080322265625,798.2051391601562
1630415914735,783.2966918945312,790.952392578125,800.2197875976562,811.5018310546875
1630415914735,770.8058471679688,804.2490844726562,781.6849975585938,783.2966918945312
1630415914735,774.8351440429688,798.6080322265625,802.2344360351562,819.96337890625
1630415914735,767.9853515625,808.2783813476562,780.879150390625,791.3552856445312
1630415914751,796.996337890625,806.2637329101562,807.069580078125,807.069580078125
1630415914751,780.0732421875,797.8021850585938,791.7582397460938,795.3846435546875
1630415914751,779.2673950195312,806.2637329101562,796.5933837890625,802.2344360351562
1630415914751,793.3699340820312,798.6080322265625,792.5640869140625,796.5933837890625
1630415914751,784.5054931640625,811.5018310546875,790.952392578125,782.893798828125
1630415914751,790.952392578125,809.4871826171875,798.6080322265625,826.4102783203125
1630415914751,786.5201416015625,804.2490844726562,801.8314819335938,802.6373901367188
1630415914751,796.5933837890625,801.025634765625,805.054931640625,794.5787353515625
1630415914751,790.5494384765625,813.113525390625,793.3699340820312,783.6996459960938
1630415914751,795.3846435546875,809.89013671875,782.893798828125,808.2783813476562
1630415914767,796.5933837890625,804.6520385742188,787.3259887695312,789.7435913085938
1630415914767,793.3699340820312,806.6666870117188,799.8168334960938,819.1575317382812
1630415914767,799.8168334960938,812.3076782226562,792.5640869140625,793.3699340820312
1630415914767,788.5347900390625,806.2637329101562,790.952392578125,781.2820434570312
1630415914767,803.8461303710938,813.5164794921875,786.1171875,814.7252807617188
1630415914767,797.8021850585938,803.4432373046875,791.3552856445312,805.8607788085938
1630415914767,806.6666870117188,805.4578857421875,794.5787353515625,834.4688720703125
1630415914767,806.6666870117188,803.4432373046875,793.3699340820312,822.3809814453125
1630415914782,818.7545776367188,807.87548828125,796.1904907226562,815.93408203125
1630415914782,817.1428833007812,815.1282348632812,790.1465454101562,818.7545776367188
1630415914782,828.02197265625,806.2637329101562,803.4432373046875,831.2454223632812
1630415914782,804.2490844726562,807.4725341796875,795.3846435546875,809.89013671875
1630415914782,804.2490844726562,805.8607788085938,800.6226806640625,800.2197875976562
1630415914782,812.3076782226562,809.4871826171875,792.1611938476562,790.1465454101562
1630415914782,814.3223266601562,802.2344360351562,805.4578857421875,813.5164794921875
1630415914798,805.8607788085938,807.4725341796875,788.937744140625,805.8607788085938
1630415914798,815.93408203125,818.7545776367188,791.7582397460938,827.6190185546875
1630415914798,814.3223266601562,816.3369750976562,790.1465454101562,821.97802734375
1630415914798,796.5933837890625,807.4725341796875,789.7435913085938,794.981689453125
1630415914798,816.3369750976562,814.3223266601562,791.3552856445312,798.6080322265625
1630415914813,801.4285888671875,803.8461303710938,784.5054931640625,793.7728881835938
1630415914829,805.8607788085938,817.1428833007812,791.3552856445312,810.2930297851562
1630415914829,811.098876953125,812.3076782226562,792.1611938476562,800.2197875976562
1630415914829,806.6666870117188,805.054931640625,798.2051391601562,790.5494384765625
1630415914829,810.6959838867188,804.6520385742188,788.5347900390625,790.1465454101562
1630415914829,805.054931640625,817.94873046875,784.1025390625,802.6373901367188
1630415914829,805.054931640625,828.8278198242188,787.7289428710938,828.02197265625
1630415914829,804.2490844726562,803.8461303710938,799.8168334960938,799.010986328125
1630415914829,803.8461303710938,817.1428833007812,786.1171875,809.4871826171875
1630415914829,799.4139404296875,823.1868286132812,792.1611938476562,826.8131713867188
1630415914829,811.098876953125,810.6959838867188,782.4908447265625,790.1465454101562
1630415914829,808.2783813476562,809.4871826171875,791.7582397460938,810.6959838867188
1630415914892,821.1721801757812,800.6226806640625,791.7582397460938,805.4578857421875
1630415914892,814.3223266601562,807.87548828125,786.923095703125,816.7399291992188
1630415914892,813.91943359375,807.4725341796875,787.7289428710938,800.6226806640625
1630415914892,819.5604248046875,801.025634765625,791.7582397460938,803.8461303710938
1630415914892,815.93408203125,807.87548828125,787.3259887695312,819.1575317382812
1630415914892,811.90478515625,805.8607788085938,791.3552856445312,807.069580078125
1630415914892,809.89013671875,804.2490844726562,783.6996459960938,799.4139404296875
1630415914892,818.3516235351562,801.4285888671875,796.5933837890625,801.8314819335938
1630415914892,807.069580078125,801.025634765625,789.3406372070312,804.6520385742188
1630415914892,810.6959838867188,807.4725341796875,795.7875366210938,799.8168334960938
1630415914907,812.7106323242188,803.8461303710938,790.1465454101562,795.3846435546875
1630415914907,811.90478515625,801.8314819335938,789.3406372070312,805.8607788085938
1630415914970,790.5494384765625,808.6813354492188,780.879150390625,776.0439453125
1630415914970,809.89013671875,802.6373901367188,786.923095703125,821.1721801757812
1630415914970,805.8607788085938,803.8461303710938,785.3113403320312,811.098876953125
1630415914970,801.4285888671875,794.5787353515625,789.7435913085938,809.4871826171875
1630415914970,803.040283203125,806.2637329101562,786.1171875,808.2783813476562
1630415914970,805.4578857421875,811.90478515625,783.2966918945312,799.8168334960938
1630415914970,801.8314819335938,797.8021850585938,779.6703491210938,795.7875366210938
1630415914985,798.2051391601562,803.4432373046875,784.5054931640625,789.7435913085938
1630415914985,817.94873046875,803.040283203125,784.1025390625,821.5750732421875
1630415914985,805.054931640625,796.1904907226562,790.952392578125,817.1428833007812
1630415914985,801.4285888671875,797.3992919921875,776.0439453125,796.996337890625
1630415914985,817.94873046875,808.6813354492188,782.893798828125,813.91943359375
1630415915032,804.2490844726562,799.010986328125,784.908447265625,816.3369750976562
1630415915032,797.8021850585938,791.3552856445312,779.2673950195312,813.91943359375
1630415915032,810.2930297851562,802.2344360351562,786.1171875,833.2600708007812
1630415915048,801.4285888671875,791.3552856445312,777.2527465820312,822.7838745117188
1630415915048,795.7875366210938,794.1758422851562,771.2088012695312,792.5640869140625
1630415915048,799.8168334960938,790.1465454101562,779.2673950195312,809.4871826171875
1630415915048,800.2197875976562,787.7289428710938,780.4761962890625,785.3113403320312
1630415915048,796.5933837890625,792.1611938476562,776.8497924804688,807.069580078125
1630415915048,791.3552856445312,791.7582397460938,778.05859375,788.937744140625
1630415915048,794.981689453125,787.7289428710938,779.2673950195312,805.4578857421875
1630415915048,796.996337890625,786.1171875,779.2673950195312,786.5201416015625
1630415915048,805.8607788085938,799.010986328125,772.8204956054688,817.5457763671875
1630415915063,799.010986328125,793.7728881835938,780.0732421875,822.7838745117188
1630415915079,798.2051391601562,792.5640869140625,778.8644409179688,780.0732421875
1630415915079,804.2490844726562,786.923095703125,768.7911987304688,789.3406372070312
1630415915079,799.4139404296875,788.5347900390625,775.6410522460938,788.5347900390625
1630415915079,801.8314819335938,796.5933837890625,777.6557006835938,789.3406372070312
1630415915079,808.2783813476562,784.1025390625,786.5201416015625,821.5750732421875
1630415915079,803.040283203125,784.908447265625,782.4908447265625,784.5054931640625
1630415915079,818.7545776367188,798.2051391601562,770.8058471679688,822.3809814453125
1630415915079,803.4432373046875,777.2527465820312,778.8644409179688,793.3699340820312
1630415915079,799.4139404296875,788.5347900390625,774.4322509765625,799.8168334960938
1630415915079,796.5933837890625,783.6996459960938,780.879150390625,792.5640869140625
1630415915079,809.89013671875,777.6557006835938,780.4761962890625,804.2490844726562
1630415915079,810.2930297851562,796.996337890625,773.2234497070312,823.99267578125
1630415915079,809.084228515625,782.087890625,789.3406372070312,823.99267578125
1630415915079,792.1611938476562,779.2673950195312,772.8204956054688,792.1611938476562
1630415915079,801.8314819335938,785.3113403320312,784.5054931640625,808.6813354492188
1630415915079,816.3369750976562,795.7875366210938,773.2234497070312,812.3076782226562
1630415915079,787.7289428710938,781.6849975585938,766.7765502929688,792.967041015625
1630415915079,807.87548828125,788.5347900390625,776.8497924804688,799.010986328125
1630415915079,802.6373901367188,790.952392578125,779.2673950195312,811.90478515625
1630415915079,807.4725341796875,782.4908447265625,786.923095703125,813.5164794921875
1630415915095,809.4871826171875,786.923095703125,776.4468994140625,811.098876953125
1630415915095,810.6959838867188,787.7289428710938,779.2673950195312,786.5201416015625
1630415915095,804.2490844726562,780.0732421875,778.05859375,812.7106323242188
1630415915126,793.3699340820312,786.923095703125,768.3883056640625,811.5018310546875
1630415915126,794.5787353515625,770.4029541015625,769.1941528320312,794.5787353515625
1630415915126,795.3846435546875,780.4761962890625,772.4176025390625,812.3076782226562
1630415915141,803.8461303710938,772.0146484375,770.0,812.7106323242188
1630415915141,790.5494384765625,784.1025390625,765.970703125,780.4761962890625
1630415915141,793.7728881835938,773.2234497070312,765.1648559570312,772.8204956054688
1630415915141,786.5201416015625,777.6557006835938,767.1795043945312,770.4029541015625
1630415915141,803.040283203125,784.1025390625,764.7619018554688,800.2197875976562
1630415915141,791.3552856445312,774.8351440429688,760.7326049804688,771.2088012695312
1630415915141,799.4139404296875,776.8497924804688,763.1502075195312,792.967041015625
1630415915157,791.3552856445312,782.087890625,761.94140625,765.970703125
1630415915157,797.8021850585938,780.0732421875,766.7765502929688,788.1318969726562
1630415915188,823.5897216796875,786.923095703125,763.5531005859375,796.5933837890625
1630415915188,819.5604248046875,787.3259887695312,764.7619018554688,805.054931640625
1630415915204,819.1575317382812,780.879150390625,761.94140625,781.2820434570312
1630415915204,813.5164794921875,782.4908447265625,769.1941528320312,823.1868286132812
1630415915204,813.113525390625,777.6557006835938,774.029296875,797.3992919921875
1630415915204,808.2783813476562,783.6996459960938,765.1648559570312,772.4176025390625
1630415915204,810.2930297851562,783.6996459960938,770.0,777.6557006835938
1630415915204,800.2197875976562,770.4029541015625,753.8828125,792.5640869140625
1630415915204,802.6373901367188,774.4322509765625,766.7765502929688,806.6666870117188
1630415915204,819.1575317382812,777.2527465820312,772.4176025390625,823.5897216796875
1630415915204,803.040283203125,782.4908447265625,757.912109375,783.6996459960938
1630415915204,796.1904907226562,776.0439453125,755.4945068359375,776.0439453125
1630415915204,792.5640869140625,774.029296875,757.912109375,792.967041015625
1630415915204,805.054931640625,778.8644409179688,761.5384521484375,783.2966918945312
1630415915204,815.1282348632812,785.7142944335938,767.5823974609375,800.2197875976562
1630415915204,813.113525390625,786.923095703125,768.7911987304688,800.6226806640625
1630415915204,807.069580078125,783.2966918945312,767.9853515625,780.879150390625
1630415915204,796.996337890625,772.8204956054688,751.062255859375,778.4615478515625
1630415915204,788.1318969726562,772.4176025390625,755.8974609375,798.2051391601562
1630415915204,805.054931640625,776.4468994140625,760.3296508789062,793.7728881835938
1630415915204,796.996337890625,772.8204956054688,758.7179565429688,765.1648559570312
1630415915220,793.7728881835938,758.7179565429688,753.8828125,766.7765502929688
1630415915220,792.1611938476562,771.2088012695312,758.3150024414062,776.8497924804688
1630415915220,796.5933837890625,770.8058471679688,756.3003540039062,759.9267578125
1630415915329,801.025634765625,769.5970458984375,756.7033081054688,779.6703491210938
1630415915329,800.2197875976562,772.8204956054688,751.8681030273438,772.0146484375
1630415915345,800.6226806640625,775.2380981445312,759.9267578125,770.4029541015625
1630415915345,803.040283203125,774.029296875,755.4945068359375,781.6849975585938
1630415915345,796.1904907226562,785.7142944335938,757.5091552734375,756.3003540039062
1630415915345,793.7728881835938,774.4322509765625,758.3150024414062,788.5347900390625
1630415915345,809.084228515625,776.8497924804688,757.106201171875,786.5201416015625
1630415915345,817.94873046875,777.2527465820312,758.3150024414062,792.1611938476562
1630415915345,797.3992919921875,767.5823974609375,756.7033081054688,765.1648559570312
1630415915345,794.1758422851562,764.7619018554688,747.032958984375,794.1758422851562
1630415915345,794.981689453125,775.6410522460938,758.7179565429688,765.970703125
1630415915345,821.1721801757812,780.879150390625,758.7179565429688,806.2637329101562
1630415915345,794.5787353515625,770.0,753.8828125,758.7179565429688
1630415915345,799.010986328125,780.879150390625,751.4652099609375,774.8351440429688
1630415915345,801.8314819335938,772.0146484375,755.8974609375,755.8974609375
1630415915345,800.6226806640625,760.7326049804688,753.4798583984375,785.3113403320312
1630415915345,807.87548828125,779.6703491210938,760.3296508789062,797.8021850585938
1630415915345,794.1758422851562,771.6116943359375,757.5091552734375,800.6226806640625
1630415915345,799.8168334960938,767.5823974609375,755.8974609375,788.1318969726562
1630415915345,806.2637329101562,760.3296508789062,755.8974609375,784.5054931640625
1630415915345,803.040283203125,773.6264038085938,757.106201171875,807.069580078125
1630415915345,805.8607788085938,774.029296875,757.106201171875,802.6373901367188
1630415915391,799.4139404296875,776.4468994140625,762.7472534179688,761.94140625
1630415915391,807.4725341796875,770.4029541015625,766.7765502929688,804.2490844726562
1630415915391,799.010986328125,768.3883056640625,748.6447143554688,758.3150024414062
1630415915391,810.6959838867188,779.2673950195312,763.5531005859375,778.05859375
1630415915391,796.1904907226562,770.0,757.106201171875,773.2234497070312
1630415915391,804.6520385742188,780.0732421875,763.9560546875,755.4945068359375
1630415915391,795.3846435546875,772.8204956054688,756.7033081054688,772.8204956054688
1630415915391,803.4432373046875,770.4029541015625,761.94140625,770.8058471679688
1630415915391,795.3846435546875,770.4029541015625,758.3150024414062,777.2527465820312
1630415915391,795.7875366210938,763.9560546875,761.5384521484375,796.1904907226562
1630415915391,803.4432373046875,774.029296875,766.3735961914062,784.1025390625
1630415915391,798.2051391601562,764.3589477539062,752.2710571289062,768.7911987304688
1630415915407,798.6080322265625,785.7142944335938,768.3883056640625,808.6813354492188
1630415915407,809.89013671875,790.5494384765625,757.106201171875,777.2527465820312
1630415915423,793.7728881835938,790.1465454101562,771.6116943359375,830.8424682617188
1630415915423,803.040283203125,780.0732421875,764.7619018554688,788.1318969726562
1630415915423,803.8461303710938,789.3406372070312,760.7326049804688,775.2380981445312
1630415915423,787.3259887695312,789.3406372070312,765.1648559570312,789.7435913085938
1630415915423,800.2197875976562,788.1318969726562,767.5823974609375,809.084228515625
1630415915423,797.8021850585938,782.087890625,761.1355590820312,776.4468994140625
1630415915423,779.2673950195312,787.7289428710938,763.9560546875,778.4615478515625
1630415915423,793.3699340820312,784.1025390625,763.5531005859375,784.908447265625
1630415915423,793.7728881835938,779.2673950195312,763.5531005859375,775.2380981445312
1630415915423,793.3699340820312,783.6996459960938,760.3296508789062,805.054931640625
1630415915454,790.952392578125,774.8351440429688,763.9560546875,768.7911987304688
1630415915454,787.7289428710938,786.1171875,765.5677490234375,791.7582397460938
1630415915454,788.1318969726562,782.4908447265625,773.2234497070312,765.5677490234375
1630415915454,789.7435913085938,775.2380981445312,765.970703125,770.8058471679688
1630415915454,787.7289428710938,782.893798828125,769.1941528320312,776.8497924804688
1630415915454,789.7435913085938,784.908447265625,765.5677490234375,789.3406372070312
1630415915454,783.6996459960938,785.3113403320312,768.3883056640625,797.3992919921875
1630415915454,784.1025390625,780.0732421875,766.3735961914062,786.5201416015625
1630415915454,791.7582397460938,778.4615478515625,764.3589477539062,771.2088012695312
1630415915470,792.5640869140625,777.6557006835938,757.106201171875,800.6226806640625
1630415915470,790.5494384765625,770.0,756.3003540039062,785.7142944335938
1630415915470,787.7289428710938,774.4322509765625,759.9267578125,780.879150390625
1630415915550,783.6996459960938,772.0146484375,778.05859375,771.6116943359375
1630415915550,780.879150390625,776.4468994140625,778.4615478515625,800.2197875976562
1630415915550,783.2966918945312,777.6557006835938,775.2380981445312,805.054931640625
1630415915550,780.4761962890625,782.893798828125,774.8351440429688,779.6703491210938
1630415915550,788.1318969726562,766.7765502929688,776.0439453125,802.2344360351562
1630415915550,788.937744140625,775.6410522460938,772.0146484375,799.4139404296875
1630415915550,798.6080322265625,776.0439453125,780.0732421875,796.996337890625
1630415915550,790.952392578125,767.9853515625,778.4615478515625,765.970703125
1630415915550,789.7435913085938,773.6264038085938,774.4322509765625,794.981689453125
1630415915550,784.5054931640625,774.029296875,779.6703491210938,801.025634765625
1630415915550,796.1904907226562,776.0439453125,779.6703491210938,796.5933837890625
1630415915550,786.1171875,788.5347900390625,776.4468994140625,769.5970458984375
1630415915581,780.4761962890625,775.6410522460938,781.2820434570312,787.7289428710938
1630415915581,782.4908447265625,777.6557006835938,779.2673950195312,802.2344360351562
1630415915581,776.4468994140625,776.8497924804688,782.087890625,817.1428833007812
1630415915581,773.6264038085938,778.8644409179688,777.2527465820312,778.8644409179688
1630415915581,768.7911987304688,769.1941528320312,773.6264038085938,778.4615478515625
1630415915581,781.6849975585938,777.6557006835938,781.6849975585938,813.5164794921875
1630415915581,778.05859375,777.2527465820312,780.0732421875,794.5787353515625
1630415915581,781.2820434570312,777.6557006835938,776.0439453125,790.952392578125
1630415915581,765.5677490234375,770.0,778.4615478515625,786.1171875
1630415915581,772.4176025390625,782.893798828125,776.4468994140625,794.5787353515625
1630415915597,774.8351440429688,765.970703125,776.8497924804688,813.5164794921875
1630415915597,773.6264038085938,773.6264038085938,779.6703491210938,809.4871826171875
1630415915612,768.7911987304688,780.0732421875,780.4761962890625,804.2490844726562
1630415915612,782.4908447265625,786.1171875,787.7289428710938,786.923095703125
1630415915612,779.6703491210938,788.1318969726562,783.6996459960938,815.1282348632812
1630415915612,771.6116943359375,782.4908447265625,782.893798828125,813.5164794921875
1630415915612,784.1025390625,768.7911987304688,778.05859375,816.3369750976562
1630415915612,759.9267578125,783.2966918945312,775.6410522460938,801.025634765625
1630415915612,787.7289428710938,787.3259887695312,784.908447265625,789.3406372070312
1630415915612,786.5201416015625,775.2380981445312,780.879150390625,796.1904907226562
1630415915612,781.2820434570312,784.908447265625,791.7582397460938,790.952392578125
1630415915612,782.893798828125,784.1025390625,785.7142944335938,784.908447265625
1630415915612,784.1025390625,778.8644409179688,780.4761962890625,812.3076782226562
1630415915628,778.8644409179688,784.908447265625,789.7435913085938,804.2490844726562
1630415915643,756.3003540039062,786.923095703125,788.5347900390625,784.908447265625
1630415915643,763.1502075195312,784.908447265625,784.5054931640625,762.3442993164062
1630415915643,758.7179565429688,799.8168334960938,785.7142944335938,815.1282348632812
1630415915643,760.3296508789062,790.5494384765625,776.8497924804688,791.3552856445312
1630415915643,763.9560546875,794.1758422851562,783.2966918945312,805.054931640625
1630415915659,765.1648559570312,790.952392578125,786.923095703125,800.2197875976562
1630415915659,767.9853515625,784.5054931640625,789.7435913085938,774.8351440429688
1630415915659,755.4945068359375,790.952392578125,788.937744140625,774.4322509765625
1630415915659,747.8388061523438,800.2197875976562,786.923095703125,786.1171875
1630415915659,766.3735961914062,781.2820434570312,788.937744140625,780.0732421875
1630415915659,748.2417602539062,793.7728881835938,789.7435913085938,792.967041015625
1630415915659,765.1648559570312,783.2966918945312,786.923095703125,753.8828125
1630415915690,766.3735961914062,790.5494384765625,789.3406372070312,805.8607788085938
1630415915690,754.2857055664062,788.937744140625,789.3406372070312,781.2820434570312
1630415915690,764.3589477539062,789.7435913085938,793.3699340820312,770.4029541015625
1630415915690,751.062255859375,793.3699340820312,794.1758422851562,763.9560546875
1630415915690,755.4945068359375,791.3552856445312,791.3552856445312,803.4432373046875
1630415915690,753.8828125,786.923095703125,795.3846435546875,772.8204956054688
1630415915690,753.076904296875,786.1171875,799.4139404296875,803.8461303710938
1630415915690,751.4652099609375,781.6849975585938,794.1758422851562,801.025634765625
1630415915690,754.6886596679688,788.1318969726562,792.1611938476562,788.937744140625
1630415915690,763.9560546875,786.5201416015625,788.1318969726562,784.908447265625
1630415915706,753.076904296875,788.1318969726562,799.8168334960938,784.908447265625
1630415915706,750.6593627929688,785.7142944335938,794.5787353515625,779.2673950195312
1630415915753,772.8204956054688,800.6226806640625,801.4285888671875,779.2673950195312
1630415915753,768.3883056640625,788.937744140625,795.3846435546875,772.0146484375
1630415915753,774.4322509765625,796.1904907226562,784.908447265625,808.2783813476562
1630415915768,765.970703125,800.6226806640625,805.054931640625,753.076904296875
1630415915768,780.4761962890625,796.996337890625,800.2197875976562,786.1171875
1630415915768,763.5531005859375,799.010986328125,803.8461303710938,796.996337890625
1630415915768,774.8351440429688,800.2197875976562,805.054931640625,801.8314819335938
1630415915768,785.7142944335938,796.996337890625,800.2197875976562,791.7582397460938
1630415915768,768.7911987304688,793.7728881835938,789.3406372070312,785.7142944335938
1630415915768,774.029296875,799.4139404296875,801.025634765625,788.937744140625
1630415915768,761.94140625,797.8021850585938,803.8461303710938,787.7289428710938
1630415915768,747.8388061523438,801.4285888671875,794.1758422851562,780.4761962890625
1630415915768,769.5970458984375,790.952392578125,787.7289428710938,774.8351440429688
1630415915768,769.5970458984375,797.3992919921875,804.2490844726562,755.091552734375
1630415915768,768.7911987304688,805.4578857421875,796.996337890625,806.6666870117188
1630415915768,761.94140625,799.010986328125,799.010986328125,790.1465454101562
1630415915768,771.2088012695312,792.967041015625,781.2820434570312,791.3552856445312
1630415915768,783.6996459960938,798.6080322265625,802.6373901367188,793.3699340820312
1630415915768,765.970703125,804.2490844726562,805.8607788085938,768.3883056640625
1630415915768,767.5823974609375,804.2490844726562,803.040283203125,774.029296875
1630415915784,747.4359130859375,804.2490844726562,793.3699340820312,792.1611938476562
1630415915784,767.9853515625,795.3846435546875,798.6080322265625,770.8058471679688
1630415915784,770.4029541015625,797.8021850585938,793.3699340820312,779.2673950195312
1630415915784,773.2234497070312,796.996337890625,805.4578857421875,783.2966918945312
1630415915831,765.5677490234375,796.5933837890625,801.4285888671875,795.3846435546875
1630415915831,768.7911987304688,798.6080322265625,795.7875366210938,782.893798828125
1630415915831,765.970703125,801.4285888671875,795.7875366210938,778.4615478515625
1630415915831,765.970703125,797.8021850585938,796.5933837890625,805.8607788085938
1630415915831,767.1795043945312,801.4285888671875,797.8021850585938,788.5347900390625
1630415915846,766.3735961914062,804.6520385742188,794.5787353515625,795.3846435546875
1630415915846,769.5970458984375,804.2490844726562,792.5640869140625,801.025634765625
1630415915862,765.1648559570312,802.6373901367188,805.054931640625,798.2051391601562
1630415915862,768.3883056640625,807.4725341796875,793.7728881835938,787.7289428710938
1630415915862,757.106201171875,802.6373901367188,795.3846435546875,774.4322509765625
1630415915862,762.7472534179688,803.4432373046875,808.2783813476562,799.4139404296875
1630415915878,772.4176025390625,809.4871826171875,800.2197875976562,777.2527465820312
1630415915878,759.5238037109375,798.2051391601562,801.025634765625,773.6264038085938
1630415915878,767.5823974609375,805.4578857421875,800.2197875976562,780.0732421875
1630415915878,768.7911987304688,807.87548828125,804.6520385742188,796.996337890625
1630415915878,768.7911987304688,807.069580078125,804.2490844726562,783.2966918945312
1630415915878,770.4029541015625,807.069580078125,802.2344360351562,796.996337890625
1630415915893,755.4945068359375,793.7728881835938,801.8314819335938,792.967041015625
1630415915893,762.7472534179688,803.8461303710938,799.010986328125,785.7142944335938
1630415915893,756.7033081054688,795.3846435546875,795.7875366210938,771.6116943359375
1630415915893,767.5823974609375,805.4578857421875,801.4285888671875,789.3406372070312
1630415915893,757.912109375,794.981689453125,796.1904907226562,767.9853515625
1630415915893,762.3442993164062,796.996337890625,803.8461303710938,793.3699340820312
1630415915909,747.4359130859375,804.6520385742188,807.4725341796875,792.967041015625
1630415915909,751.8681030273438,798.6080322265625,817.1428833007812,785.3113403320312
1630415915909,749.047607421875,803.8461303710938,810.2930297851562,790.952392578125
1630415915909,753.8828125,794.1758422851562,803.8461303710938,789.7435913085938
1630415915909,755.8974609375,799.010986328125,806.2637329101562,803.040283203125
1630415915925,762.3442993164062,804.2490844726562,806.2637329101562,811.098876953125
1630415915925,745.4212646484375,801.025634765625,796.1904907226562,786.5201416015625
1630415915925,748.6447143554688,803.040283203125,808.2783813476562,774.029296875
1630415915925,749.047607421875,802.2344360351562,803.4432373046875,805.4578857421875
1630415915925,765.970703125,802.2344360351562,819.1575317382812,805.054931640625
1630415915925,760.7326049804688,798.2051391601562,825.6043701171875,791.3552856445312
1630415915925,748.6447143554688,800.6226806640625,803.040283203125,767.1795043945312
1630415915987,730.10986328125,799.4139404296875,810.2930297851562,796.5933837890625
1630415915987,730.10986328125,798.2051391601562,796.996337890625,769.5970458984375
1630415915987,703.5164794921875,798.2051391601562,819.1575317382812,748.6447143554688
1630415915987,724.8717651367188,808.6813354492188,808.2783813476562,750.6593627929688
1630415915987,715.2014770507812,801.8314819335938,821.5750732421875,784.1025390625
1630415915987,750.2564086914062,802.2344360351562,809.084228515625,806.6666870117188
1630415915987,739.3773193359375,807.4725341796875,814.3223266601562,771.2088012695312
1630415915987,698.6813354492188,808.6813354492188,821.97802734375,789.3406372070312
1630415915987,710.3662719726562,807.87548828125,817.1428833007812,751.8681030273438
1630415915987,709.5604248046875,810.6959838867188,815.5311279296875,788.1318969726562
1630415915987,750.6593627929688,801.8314819335938,808.2783813476562,815.93408203125
1630415915987,695.8607788085938,804.6520385742188,819.5604248046875,800.2197875976562
1630415916018,701.5018310546875,795.3846435546875,832.8571166992188,738.974365234375
1630415916018,700.2930297851562,807.87548828125,815.1282348632812,747.8388061523438
1630415916018,700.2930297851562,809.4871826171875,824.3956298828125,760.7326049804688
1630415916018,699.4871826171875,812.7106323242188,814.7252807617188,773.2234497070312
1630415916018,708.3516235351562,802.2344360351562,833.6630249023438,743.4066162109375
1630415916018,693.040283203125,804.6520385742188,805.054931640625,751.4652099609375
1630415916018,699.084228515625,813.113525390625,807.87548828125,758.7179565429688
1630415916018,705.5311279296875,810.6959838867188,806.6666870117188,761.94140625
1630415916018,707.1428833007812,816.7399291992188,826.00732421875,772.0146484375
1630415916034,713.1868286132812,811.90478515625,829.2307739257812,770.4029541015625
1630415916034,709.5604248046875,809.89013671875,829.6337280273438,757.106201171875
1630415916034,698.2783813476562,807.069580078125,808.2783813476562,764.3589477539062
1630415916065,723.6630249023438,813.113525390625,817.5457763671875,786.923095703125
1630415916065,723.2600708007812,813.5164794921875,827.6190185546875,765.5677490234375
1630415916065,704.7252807617188,810.2930297851562,830.4395751953125,758.7179565429688
1630415916065,748.6447143554688,803.8461303710938,825.2014770507812,763.5531005859375
1630415916065,717.6190185546875,815.5311279296875,824.7985229492188,786.923095703125
1630415916065,724.06591796875,810.2930297851562,828.8278198242188,761.94140625
1630415916065,742.1978149414062,807.069580078125,826.4102783203125,755.8974609375
1630415916065,742.6007080078125,804.6520385742188,819.96337890625,762.3442993164062
1630415916065,722.8571166992188,807.069580078125,821.1721801757812,749.047607421875
1630415916065,718.4249267578125,811.5018310546875,823.5897216796875,760.7326049804688
1630415916081,721.6483764648438,806.6666870117188,822.7838745117188,766.7765502929688
1630415916112,753.8828125,808.6813354492188,823.1868286132812,734.5421142578125
1630415916112,751.4652099609375,816.3369750976562,823.5897216796875,782.4908447265625
1630415916112,771.6116943359375,811.098876953125,823.99267578125,736.1538696289062
1630415916112,771.6116943359375,821.1721801757812,825.2014770507812,750.2564086914062
1630415916112,784.908447265625,816.7399291992188,824.3956298828125,754.6886596679688
1630415916112,766.3735961914062,822.7838745117188,828.8278198242188,761.1355590820312
1630415916112,786.923095703125,826.4102783203125,827.6190185546875,757.106201171875
1630415916112,770.4029541015625,818.7545776367188,827.2161254882812,784.908447265625
1630415916112,774.8351440429688,818.3516235351562,823.5897216796875,772.4176025390625
1630415916112,769.5970458984375,822.7838745117188,826.00732421875,774.4322509765625
1630415916112,761.94140625,817.94873046875,826.00732421875,786.5201416015625
1630415916112,767.5823974609375,817.94873046875,831.6483764648438,776.4468994140625
1630415916206,778.05859375,808.6813354492188,834.4688720703125,745.018310546875
1630415916221,790.952392578125,802.2344360351562,819.1575317382812,687.8021850585938
1630415916221,794.1758422851562,817.94873046875,827.2161254882812,749.4505615234375
1630415916221,767.9853515625,805.8607788085938,828.8278198242188,732.5274658203125
1630415916221,805.8607788085938,806.2637329101562,817.5457763671875,696.2637329101562
1630415916221,811.098876953125,809.084228515625,821.1721801757812,703.113525390625
1630415916221,784.5054931640625,802.2344360351562,817.5457763671875,682.967041015625
1630415916221,774.029296875,819.96337890625,828.4249267578125,766.7765502929688
1630415916221,802.6373901367188,819.96337890625,818.7545776367188,733.3333129882812
1630415916221,797.8021850585938,824.3956298828125,826.8131713867188,749.8534545898438
1630415916221,781.6849975585938,815.1282348632812,830.4395751953125,748.6447143554688
1630415916221,804.6520385742188,823.99267578125,824.7985229492188,750.2564086914062
1630415916221,786.1171875,819.96337890625,829.6337280273438,753.076904296875
1630415916221,803.8461303710938,826.00732421875,829.2307739257812,747.8388061523438
1630415916221,786.1171875,817.5457763671875,815.93408203125,717.6190185546875
1630415916221,805.054931640625,822.3809814453125,825.2014770507812,747.032958984375
1630415916221,791.7582397460938,813.91943359375,817.94873046875,711.1721801757812
1630415916221,799.010986328125,829.6337280273438,825.2014770507812,745.8241577148438
1630415916221,783.2966918945312,817.94873046875,841.3186645507812,775.2380981445312
1630415916221,774.8351440429688,816.7399291992188,823.99267578125,755.091552734375
1630415916221,797.8021850585938,817.5457763671875,822.3809814453125,717.6190185546875
1630415916221,793.3699340820312,829.2307739257812,819.5604248046875,754.6886596679688
1630415916221,778.05859375,811.098876953125,827.6190185546875,737.7655639648438
1630415916299,807.87548828125,806.6666870117188,822.7838745117188,690.6226806640625
1630415916299,788.937744140625,803.8461303710938,820.7692260742188,687.3992919921875
1630415916315,800.2197875976562,814.3223266601562,828.8278198242188,670.4761962890625
1630415916315,785.3113403320312,813.113525390625,828.02197265625,679.3406372070312
1630415916315,851.3919677734375,820.7692260742188,836.886474609375,691.8314819335938
1630415916315,849.7802124023438,823.1868286132812,831.6483764648438,698.6813354492188
1630415916315,829.6337280273438,817.1428833007812,823.5897216796875,646.3003540039062
1630415916315,805.4578857421875,813.5164794921875,823.5897216796875,673.6996459960938
1630415916315,803.4432373046875,804.6520385742188,814.7252807617188,657.9853515625
1630415916315,794.981689453125,819.5604248046875,825.6043701171875,644.6886596679688
1630415916315,816.3369750976562,813.91943359375,821.5750732421875,679.3406372070312
1630415916315,819.96337890625,814.7252807617188,824.7985229492188,645.091552734375
1630415916315,790.1465454101562,816.3369750976562,830.03662109375,686.1904907226562
1630415916315,840.5128173828125,825.2014770507812,843.3333129882812,676.5201416015625
1630415916315,812.3076782226562,817.5457763671875,816.7399291992188,655.970703125
1630415916315,793.7728881835938,809.4871826171875,820.7692260742188,641.8681030273438
1630415916315,793.3699340820312,817.5457763671875,817.1428833007812,651.94140625
1630415916331,833.6630249023438,829.6337280273438,832.05126953125,658.7911987304688
1630415916331,811.098876953125,830.03662109375,816.7399291992188,665.2380981445312
1630415916331,827.6190185546875,821.97802734375,826.00732421875,671.2820434570312
1630415916331,821.5750732421875,821.97802734375,838.901123046875,668.4615478515625
1630415916331,813.113525390625,822.7838745117188,819.5604248046875,661.6116943359375
1630415916331,842.930419921875,825.6043701171875,830.4395751953125,679.3406372070312
1630415916331,815.5311279296875,821.97802734375,835.6776733398438,649.9267578125
1630415916346,812.7106323242188,817.1428833007812,815.93408203125,701.098876953125
1630415916346,796.5933837890625,815.93408203125,815.1282348632812,699.89013671875
1630415916346,848.5714111328125,819.5604248046875,833.6630249023438,704.7252807617188
1630415916346,836.4835205078125,821.1721801757812,822.3809814453125,718.8278198242188
1630415916346,843.3333129882812,823.5897216796875,837.6923217773438,698.6813354492188
1630415916346,839.7069702148438,821.97802734375,827.2161254882812,712.3809814453125
1630415916346,823.5897216796875,830.8424682617188,832.8571166992188,696.6666870117188
1630415916346,836.4835205078125,826.4102783203125,832.4542236328125,693.4432373046875
1630415916346,825.2014770507812,829.6337280273438,829.6337280273438,693.040283203125
1630415916362,834.06591796875,823.99267578125,829.6337280273438,698.2783813476562
1630415916362,832.4542236328125,823.5897216796875,833.2600708007812,706.3369750976562
1630415916362,832.8571166992188,819.1575317382812,830.03662109375,711.97802734375
1630415916393,811.5018310546875,814.3223266601562,816.3369750976562,709.5604248046875
1630415916393,831.2454223632812,814.3223266601562,817.5457763671875,721.2454223632812
1630415916393,830.03662109375,813.113525390625,815.1282348632812,719.6337280273438
1630415916393,817.94873046875,810.6959838867188,816.3369750976562,721.2454223632812
1630415916409,804.2490844726562,828.4249267578125,828.8278198242188,748.2417602539062
1630415916409,825.6043701171875,814.7252807617188,809.4871826171875,724.4688720703125
1630415916409,803.4432373046875,817.1428833007812,808.2783813476562,728.09521484375
1630415916409,828.02197265625,815.5311279296875,818.7545776367188,738.974365234375
1630415916409,805.054931640625,823.1868286132812,823.1868286132812,761.5384521484375
1630415916409,802.6373901367188,814.3223266601562,819.1575317382812,734.1392211914062
1630415916409,821.5750732421875,819.5604248046875,820.3662719726562,783.2966918945312
1630415916409,814.7252807617188,824.3956298828125,823.5897216796875,742.1978149414062
1630415916424,807.069580078125,824.3956298828125,824.7985229492188,799.010986328125
1630415916424,851.3919677734375,820.3662719726562,820.7692260742188,844.1392211914062
1630415916424,826.00732421875,827.6190185546875,825.6043701171875,817.5457763671875
1630415916424,833.2600708007812,822.7838745117188,826.00732421875,770.0
1630415916424,832.8571166992188,818.3516235351562,825.2014770507812,808.2783813476562
1630415916424,817.1428833007812,817.94873046875,824.7985229492188,803.8461303710938
1630415916424,842.5274658203125,821.5750732421875,823.5897216796875,840.915771484375
1630415916440,829.2307739257812,828.4249267578125,822.7838745117188,773.6264038085938
1630415916440,836.08056640625,828.02197265625,823.5897216796875,757.5091552734375
1630415916440,813.91943359375,826.4102783203125,823.1868286132812,784.908447265625
1630415916440,841.7216186523438,824.7985229492188,821.5750732421875,825.2014770507812
1630415916440,812.7106323242188,826.4102783203125,821.1721801757812,799.8168334960938
1630415916534,816.3369750976562,821.97802734375,823.99267578125,788.937744140625
1630415916534,800.6226806640625,819.96337890625,826.00732421875,795.3846435546875
1630415916534,823.1868286132812,811.098876953125,819.96337890625,793.7728881835938
1630415916549,810.2930297851562,820.7692260742188,823.1868286132812,787.3259887695312
1630415916549,800.2197875976562,817.94873046875,828.02197265625,801.025634765625
1630415916549,817.94873046875,817.5457763671875,819.1575317382812,783.6996459960938
1630415916549,826.00732421875,818.7545776367188,816.7399291992188,807.87548828125
1630415916549,820.3662719726562,810.2930297851562,816.7399291992188,787.7289428710938
1630415916549,794.981689453125,813.113525390625,817.5457763671875,787.3259887695312
1630415916549,809.89013671875,815.5311279296875,823.5897216796875,816.3369750976562
1630415916549,813.113525390625,811.098876953125,812.7106323242188,757.5091552734375
1630415916549,837.2893676757812,809.89013671875,816.7399291992188,798.6080322265625
1630415916549,804.6520385742188,814.3223266601562,819.1575317382812,800.6226806640625
1630415916549,830.8424682617188,819.5604248046875,820.3662719726562,781.6849975585938
1630415916549,816.7399291992188,815.1282348632812,823.5897216796875,802.6373901367188
1630415916549,800.2197875976562,813.91943359375,816.7399291992188,755.4945068359375
1630415916549,824.7985229492188,815.1282348632812,823.5897216796875,813.113525390625
1630415916549,819.5604248046875,821.5750732421875,816.7399291992188,803.8461303710938
1630415916549,809.084228515625,821.5750732421875,818.7545776367188,766.7765502929688
1630415916549,831.6483764648438,817.94873046875,822.3809814453125,801.4285888671875
1630415916549,807.4725341796875,821.97802734375,815.93408203125,770.4029541015625
1630415916565,803.040283203125,816.3369750976562,823.99267578125,808.6813354492188
1630415916565,807.87548828125,820.3662719726562,811.90478515625,829.2307739257812
1630415916565,801.025634765625,820.3662719726562,814.7252807617188,819.1575317382812
1630415916565,810.2930297851562,814.7252807617188,814.7252807617188,801.8314819335938
1630415916581,834.06591796875,806.6666870117188,819.1575317382812,821.5750732421875
1630415916581,806.2637329101562,811.5018310546875,819.5604248046875,831.6483764648438
1630415916581,805.054931640625,812.3076782226562,817.5457763671875,818.3516235351562
1630415916581,819.5604248046875,817.1428833007812,813.91943359375,819.1575317382812
1630415916581,823.1868286132812,809.89013671875,818.7545776367188,835.6776733398438
1630415916581,801.8314819335938,808.6813354492188,818.3516235351562,812.7106323242188
1630415916581,789.7435913085938,819.5604248046875,821.5750732421875,839.7069702148438
1630415916581,809.89013671875,822.7838745117188,817.5457763671875,846.959716796875
1630415916581,784.908447265625,816.3369750976562,818.7545776367188,823.1868286132812
1630415916596,823.1868286132812,824.3956298828125,813.113525390625,842.930419921875
1630415916596,807.87548828125,818.7545776367188,811.5018310546875,832.4542236328125
1630415916674,820.7692260742188,816.7399291992188,823.5897216796875,848.1685180664062
1630415916674,792.5640869140625,811.098876953125,817.1428833007812,813.91943359375
1630415916674,793.3699340820312,811.098876953125,824.3956298828125,825.2014770507812
1630415916674,790.952392578125,810.2930297851562,826.4102783203125,822.3809814453125
1630415916674,804.6520385742188,811.5018310546875,826.00732421875,835.6776733398438
1630415916674,789.7435913085938,805.4578857421875,823.5897216796875,816.7399291992188
1630415916674,825.2014770507812,811.90478515625,824.7985229492188,838.4981689453125
1630415916674,815.5311279296875,811.5018310546875,828.02197265625,827.6190185546875
1630415916674,810.2930297851562,814.3223266601562,823.5897216796875,841.3186645507812
1630415916690,807.069580078125,807.4725341796875,828.8278198242188,820.3662719726562
1630415916690,828.4249267578125,809.084228515625,828.4249267578125,814.3223266601562
1630415916690,816.3369750976562,813.91943359375,826.4102783203125,808.2783813476562
1630415916690,839.3040161132812,823.1868286132812,824.7985229492188,827.6190185546875
1630415916690,815.93408203125,817.1428833007812,826.4102783203125,809.4871826171875
1630415916690,809.89013671875,818.3516235351562,829.2307739257812,817.5457763671875
1630415916690,808.2783813476562,813.113525390625,825.2014770507812,831.6483764648438
1630415916690,825.6043701171875,821.5750732421875,828.02197265625,826.8131713867188
1630415916690,797.3992919921875,810.6959838867188,826.00732421875,813.5164794921875
1630415916690,834.06591796875,816.7399291992188,826.4102783203125,827.2161254882812
1630415916690,832.05126953125,824.7985229492188,823.5897216796875,825.2014770507812
1630415916690,790.952392578125,807.4725341796875,826.4102783203125,814.3223266601562
1630415916706,827.2161254882812,819.96337890625,826.8131713867188,790.5494384765625
1630415916706,816.3369750976562,821.1721801757812,828.02197265625,811.5018310546875
1630415916753,735.3479614257812,823.1868286132812,815.93408203125,735.7509155273438
1630415916753,822.7838745117188,819.5604248046875,822.3809814453125,788.1318969726562
1630415916753,736.959716796875,816.3369750976562,826.00732421875,753.076904296875
1630415916753,735.7509155273438,813.91943359375,815.5311279296875,740.989013671875
1630415916753,729.3040161132812,823.99267578125,821.1721801757812,743.4066162109375
1630415916768,780.879150390625,816.7399291992188,823.99267578125,761.5384521484375
1630415916768,755.091552734375,819.96337890625,824.3956298828125,746.6300659179688
1630415916768,805.4578857421875,819.1575317382812,823.5897216796875,788.937744140625
1630415916768,782.4908447265625,815.93408203125,825.6043701171875,777.2527465820312
1630415916768,761.1355590820312,815.1282348632812,803.8461303710938,755.091552734375
1630415916768,728.901123046875,814.3223266601562,815.93408203125,725.6776733398438
1630415916768,778.05859375,819.1575317382812,823.99267578125,761.94140625
1630415916784,811.5018310546875,805.8607788085938,825.6043701171875,823.1868286132812
1630415916784,794.5787353515625,818.3516235351562,804.6520385742188,764.3589477539062
1630415916784,806.2637329101562,807.069580078125,823.1868286132812,829.2307739257812
1630415916784,796.996337890625,812.7106323242188,804.6520385742188,779.6703491210938
1630415916784,823.5897216796875,817.1428833007812,827.2161254882812,823.1868286132812
1630415916784,815.1282348632812,816.3369750976562,803.4432373046875,822.3809814453125
1630415916784,783.6996459960938,813.5164794921875,794.1758422851562,793.3699340820312
1630415916784,826.4102783203125,817.1428833007812,818.3516235351562,835.6776733398438
1630415916784,728.09521484375,818.7545776367188,815.1282348632812,727.2893676757812
1630415916784,790.1465454101562,821.5750732421875,794.1758422851562,806.6666870117188
1630415916862,861.062255859375,811.5018310546875,805.054931640625,855.4212646484375
1630415916877,840.10986328125,811.90478515625,810.2930297851562,859.4505615234375
1630415916877,852.6007080078125,810.2930297851562,815.5311279296875,861.8681030273438
1630415916877,826.00732421875,814.7252807617188,810.2930297851562,851.7948608398438
1630415916877,848.5714111328125,809.89013671875,807.4725341796875,859.4505615234375
1630415916877,840.5128173828125,809.084228515625,807.4725341796875,861.8681030273438
1630415916877,839.7069702148438,818.3516235351562,800.6226806640625,856.6300659179688
1630415916877,841.7216186523438,805.054931640625,808.6813354492188,859.4505615234375
1630415916877,854.2124633789062,807.87548828125,792.1611938476562,861.8681030273438
1630415916877,854.6153564453125,807.069580078125,809.4871826171875,858.2417602539062
1630415916877,838.09521484375,808.6813354492188,817.94873046875,857.4359130859375
1630415916877,834.4688720703125,806.2637329101562,813.113525390625,838.901123046875
1630415916877,863.076904296875,809.89013671875,804.2490844726562,850.1831665039062
1630415916877,848.1685180664062,798.2051391601562,795.7875366210938,860.2564086914062
1630415916893,822.3809814453125,812.3076782226562,812.7106323242188,867.5091552734375
1630415916893,817.5457763671875,807.069580078125,806.2637329101562,853.4066162109375
1630415916893,808.6813354492188,807.4725341796875,807.4725341796875,852.1978149414062
1630415916893,838.4981689453125,809.4871826171875,810.6959838867188,832.4542236328125
1630415916893,844.1392211914062,813.5164794921875,806.2637329101562,849.7802124023438
1630415916893,842.930419921875,815.1282348632812,808.6813354492188,856.6300659179688
1630415916893,833.2600708007812,811.90478515625,804.2490844726562,859.8534545898438
1630415916893,829.6337280273438,808.2783813476562,807.87548828125,856.6300659179688
1630415916893,835.2747192382812,813.91943359375,810.2930297851562,846.1538696289062
1630415916909,843.7362670898438,814.3223266601562,811.90478515625,873.5531005859375
1630415916956,842.930419921875,809.89013671875,803.4432373046875,836.4835205078125
1630415916956,848.1685180664062,823.99267578125,816.3369750976562,852.1978149414062
1630415916956,839.3040161132812,811.5018310546875,813.113525390625,866.7033081054688
1630415916956,834.06591796875,815.93408203125,805.8607788085938,842.12451171875
1630415916956,823.99267578125,815.1282348632812,807.069580078125,853.4066162109375
1630415916956,833.6630249023438,812.7106323242188,815.1282348632812,838.09521484375
1630415916956,834.8717651367188,809.084228515625,803.040283203125,840.5128173828125
1630415916956,848.1685180664062,808.2783813476562,806.2637329101562,874.3589477539062
1630415916956,855.8241577148438,815.93408203125,811.098876953125,865.4945068359375
1630415916956,829.2307739257812,821.97802734375,813.113525390625,848.1685180664062
1630415916971,814.3223266601562,816.3369750976562,806.2637329101562,840.915771484375
1630415916971,820.7692260742188,816.7399291992188,805.4578857421875,836.4835205078125
1630415916987,833.6630249023438,821.1721801757812,809.084228515625,855.018310546875
1630415916987,835.2747192382812,814.7252807617188,807.87548828125,841.3186645507812
1630415916987,812.3076782226562,814.3223266601562,807.87548828125,833.6630249023438
1630415916987,851.3919677734375,817.94873046875,805.8607788085938,853.8095092773438
1630415917002,827.2161254882812,823.5897216796875,808.2783813476562,838.4981689453125
1630415917002,834.4688720703125,823.5897216796875,811.90478515625,834.4688720703125
1630415917002,810.6959838867188,817.94873046875,804.2490844726562,833.6630249023438
1630415917002,838.901123046875,822.7838745117188,807.069580078125,839.7069702148438
1630415917002,815.5311279296875,819.1575317382812,800.2197875976562,828.8278198242188
1630415917002,848.1685180664062,818.7545776367188,820.3662719726562,842.930419921875
1630415917018,832.05126953125,815.93408203125,806.2637329101562,833.6630249023438
1630415917018,817.1428833007812,813.5164794921875,807.87548828125,832.4542236328125
1630415917049,826.8131713867188,815.93408203125,815.93408203125,836.4835205078125
1630415917065,844.1392211914062,818.3516235351562,815.5311279296875,842.5274658203125
1630415917065,828.4249267578125,816.3369750976562,809.084228515625,842.12451171875
1630415917065,819.1575317382812,814.7252807617188,816.3369750976562,830.4395751953125
1630415917065,844.945068359375,817.94873046875,816.3369750976562,845.3479614257812
1630415917065,831.2454223632812,829.6337280273438,815.1282348632812,838.901123046875
1630415917065,843.3333129882812,825.2014770507812,817.5457763671875,840.915771484375
1630415917065,821.97802734375,820.7692260742188,806.2637329101562,840.10986328125
1630415917065,835.6776733398438,815.1282348632812,821.5750732421875,841.7216186523438
1630415917065,813.5164794921875,819.1575317382812,815.93408203125,840.5128173828125
1630415917065,827.6190185546875,816.7399291992188,821.5750732421875,841.3186645507812
1630415917065,822.3809814453125,815.93408203125,816.7399291992188,838.09521484375
1630415917096,813.91943359375,819.1575317382812,809.89013671875,821.5750732421875
1630415917096,822.7838745117188,819.1575317382812,813.113525390625,823.99267578125
1630415917112,817.5457763671875,806.6666870117188,799.8168334960938,818.7545776367188
1630415917112,809.084228515625,811.5018310546875,804.2490844726562,823.99267578125
1630415917112,804.2490844726562,818.3516235351562,805.054931640625,821.1721801757812
1630415917112,794.5787353515625,818.3516235351562,801.8314819335938,823.1868286132812
1630415917112,821.5750732421875,823.99267578125,805.054931640625,828.8278198242188
1630415917112,825.6043701171875,821.97802734375,801.8314819335938,838.4981689453125
1630415917112,810.6959838867188,809.89013671875,805.054931640625,819.5604248046875
1630415917112,819.1575317382812,808.6813354492188,815.5311279296875,827.6190185546875
1630415917112,823.1868286132812,809.4871826171875,806.6666870117188,840.5128173828125
1630415917112,813.91943359375,811.90478515625,811.5018310546875,831.6483764648438
1630415917112,803.8461303710938,813.113525390625,808.2783813476562,814.3223266601562
1630415917127,810.2930297851562,804.6520385742188,818.7545776367188,832.8571166992188
1630415917127,824.7985229492188,805.4578857421875,809.084228515625,831.2454223632812
1630415917127,824.3956298828125,807.069580078125,815.1282348632812,837.6923217773438
1630415917127,811.098876953125,814.3223266601562,807.069580078125,823.99267578125
1630415917127,806.6666870117188,803.4432373046875,809.89013671875,831.2454223632812
1630415917127,799.8168334960938,816.3369750976562,802.2344360351562,834.06591796875
1630415917127,825.6043701171875,809.89013671875,808.6813354492188,838.09521484375
1630415917127,816.3369750976562,806.2637329101562,807.4725341796875,827.6190185546875
1630415917127,842.5274658203125,813.91943359375,816.3369750976562,844.945068359375
1630415917127,834.8717651367188,812.7106323242188,813.113525390625,836.08056640625
1630415917127,815.93408203125,811.098876953125,811.5018310546875,831.2454223632812
1630415917159,828.02197265625,807.87548828125,807.4725341796875,822.3809814453125
1630415917159,807.069580078125,810.2930297851562,816.3369750976562,824.3956298828125
1630415917159,795.7875366210938,802.6373901367188,809.4871826171875,817.1428833007812
1630415917159,799.010986328125,806.2637329101562,813.113525390625,823.99267578125
1630415917159,817.94873046875,812.3076782226562,814.3223266601562,829.6337280273438
1630415917159,818.7545776367188,809.89013671875,811.90478515625,827.6190185546875
1630415917159,817.1428833007812,806.6666870117188,805.054931640625,817.5457763671875
1630415917174,821.1721801757812,809.4871826171875,793.3699340820312,818.3516235351562
1630415917174,824.3956298828125,805.4578857421875,801.8314819335938,828.4249267578125
1630415917174,816.7399291992188,805.8607788085938,810.2930297851562,829.2307739257812
1630415917174,810.2930297851562,809.084228515625,796.5933837890625,813.5164794921875
1630415917190,801.8314819335938,813.5164794921875,810.2930297851562,800.2197875976562
1630415917190,808.6813354492188,812.3076782226562,813.5164794921875,815.1282348632812
1630415917206,828.02197265625,815.5311279296875,808.6813354492188,823.5897216796875
1630415917206,805.8607788085938,812.7106323242188,807.069580078125,794.1758422851562
1630415917206,805.054931640625,812.7106323242188,809.89013671875,816.7399291992188
1630415917206,823.99267578125,817.94873046875,804.2490844726562,812.7106323242188
1630415917206,822.7838745117188,810.2930297851562,808.2783813476562,816.7399291992188
1630415917206,824.7985229492188,806.2637329101562,810.2930297851562,819.1575317382812
1630415917206,801.025634765625,815.1282348632812,804.6520385742188,817.94873046875
1630415917206,798.2051391601562,817.5457763671875,811.90478515625,822.3809814453125
1630415917206,807.4725341796875,816.3369750976562,807.069580078125,804.6520385742188
1630415917206,802.2344360351562,816.7399291992188,812.7106323242188,831.6483764648438
1630415917268,799.8168334960938,798.2051391601562,802.2344360351562,817.1428833007812
1630415917268,807.069580078125,806.6666870117188,799.4139404296875,813.5164794921875
1630415917268,824.3956298828125,807.069580078125,808.6813354492188,832.05126953125
1630415917268,784.5054931640625,801.4285888671875,799.8168334960938,816.7399291992188
1630415917268,823.5897216796875,813.5164794921875,811.098876953125,838.4981689453125
1630415917284,792.967041015625,803.4432373046875,801.8314819335938,807.4725341796875
1630415917284,790.1465454101562,809.084228515625,801.025634765625,817.5457763671875
1630415917284,776.4468994140625,809.89013671875,802.6373901367188,800.6226806640625
1630415917284,780.0732421875,803.040283203125,802.2344360351562,799.010986328125
1630415917284,807.4725341796875,807.87548828125,800.2197875976562,826.4102783203125
1630415917284,809.084228515625,806.2637329101562,802.6373901367188,828.02197265625
1630415917284,794.5787353515625,813.113525390625,801.8314819335938,805.054931640625
1630415917315,809.4871826171875,806.6666870117188,807.87548828125,823.99267578125
1630415917315,792.967041015625,810.2930297851562,797.8021850585938,812.3076782226562
1630415917315,777.6557006835938,805.4578857421875,797.8021850585938,805.8607788085938
1630415917315,797.3992919921875,804.2490844726562,808.2783813476562,823.99267578125
1630415917315,805.8607788085938,801.4285888671875,801.4285888671875,828.8278198242188
1630415917315,822.7838745117188,802.6373901367188,808.6813354492188,834.06591796875
1630415917315,782.4908447265625,808.2783813476562,800.2197875976562,803.8461303710938
1630415917315,799.4139404296875,805.4578857421875,799.4139404296875,808.2783813476562
1630415917315,801.8314819335938,799.4139404296875,796.1904907226562,811.098876953125
1630415917315,788.5347900390625,800.2197875976562,806.2637329101562,822.7838745117188
1630415917330,822.3809814453125,812.3076782226562,798.2051391601562,820.3662719726562
1630415917330,816.7399291992188,819.1575317382812,802.6373901367188,820.7692260742188
1630415917346,828.02197265625,805.054931640625,804.6520385742188,832.4542236328125
1630415917346,788.1318969726562,803.8461303710938,806.6666870117188,807.4725341796875
1630415917346,789.7435913085938,811.098876953125,796.1904907226562,814.7252807617188
1630415917346,807.069580078125,810.2930297851562,801.025634765625,828.8278198242188
1630415917346,800.2197875976562,803.040283203125,804.6520385742188,798.2051391601562
1630415917346,784.5054931640625,811.90478515625,805.8607788085938,817.1428833007812
1630415917346,823.1868286132812,803.8461303710938,804.6520385742188,819.1575317382812
1630415917362,822.3809814453125,805.054931640625,803.040283203125,828.02197265625
1630415917362,799.010986328125,799.8168334960938,805.8607788085938,812.7106323242188
1630415917362,784.5054931640625,800.2197875976562,803.4432373046875,807.069580078125
1630415917362,799.4139404296875,806.6666870117188,805.4578857421875,827.6190185546875
1630415917362,819.1575317382812,805.054931640625,806.6666870117188,823.99267578125
1630415917409,774.4322509765625,807.069580078125,809.4871826171875,822.7838745117188
1630415917409,789.3406372070312,809.084228515625,803.8461303710938,817.1428833007812
1630415917409,783.2966918945312,808.6813354492188,803.040283203125,810.6959838867188
1630415917409,799.010986328125,803.8461303710938,805.054931640625,834.8717651367188
1630415917424,821.97802734375,817.1428833007812,804.6520385742188,848.1685180664062
1630415917424,802.6373901367188,811.098876953125,809.89013671875,846.5567626953125
1630415917424,772.0146484375,819.1575317382812,801.025634765625,809.084228515625
1630415917424,814.3223266601562,818.3516235351562,807.87548828125,830.03662109375
1630415917424,814.3223266601562,805.054931640625,807.87548828125,826.00732421875
1630415917424,800.2197875976562,815.1282348632812,808.2783813476562,829.6337280273438
1630415917424,796.1904907226562,813.5164794921875,806.2637329101562,810.2930297851562
1630415917424,812.7106323242188,808.2783813476562,808.2783813476562,817.1428833007812
1630415917424,791.3552856445312,808.2783813476562,804.2490844726562,821.97802734375
1630415917424,829.6337280273438,813.113525390625,806.2637329101562,857.4359130859375
1630415917424,806.6666870117188,817.5457763671875,808.2783813476562,833.6630249023438
1630415917424,807.4725341796875,803.040283203125,805.4578857421875,836.4835205078125
1630415917424,818.3516235351562,808.6813354492188,805.4578857421875,846.5567626953125
1630415917424,770.4029541015625,800.2197875976562,803.4432373046875,811.098876953125
1630415917424,805.054931640625,815.93408203125,804.6520385742188,830.8424682617188
1630415917424,772.4176025390625,808.6813354492188,811.5018310546875,829.6337280273438
1630415917424,785.3113403320312,802.2344360351562,805.8607788085938,822.7838745117188
1630415917424,803.040283203125,809.084228515625,804.6520385742188,830.8424682617188
1630415917424,781.6849975585938,799.8168334960938,802.6373901367188,814.3223266601562
1630415917424,819.96337890625,808.6813354492188,807.4725341796875,844.945068359375
1630415917471,781.2820434570312,813.113525390625,803.8461303710938,817.5457763671875
1630415917471,794.981689453125,817.1428833007812,804.6520385742188,831.6483764648438
1630415917471,820.7692260742188,808.6813354492188,806.6666870117188,850.989013671875
1630415917471,776.4468994140625,814.7252807617188,805.054931640625,807.069580078125
1630415917471,762.7472534179688,822.3809814453125,801.4285888671875,808.6813354492188
1630415917471,806.6666870117188,809.4871826171875,809.084228515625,840.915771484375
1630415917487,790.952392578125,812.3076782226562,815.1282348632812,817.5457763671875
1630415917487,804.6520385742188,806.2637329101562,812.3076782226562,827.6190185546875
1630415917487,813.91943359375,807.069580078125,816.3369750976562,833.6630249023438
1630415917487,776.4468994140625,812.3076782226562,812.3076782226562,807.069580078125
1630415917487,770.0,815.1282348632812,811.5018310546875,784.908447265625
1630415917487,788.1318969726562,809.89013671875,807.069580078125,793.3699340820312
1630415917534,772.4176025390625,813.91943359375,809.084228515625,827.6190185546875
1630415917534,797.8021850585938,817.1428833007812,808.6813354492188,834.8717651367188
1630415917534,828.02197265625,820.3662719726562,809.4871826171875,853.003662109375
1630415917534,820.7692260742188,811.90478515625,806.2637329101562,840.10986328125
1630415917534,799.4139404296875,818.7545776367188,815.5311279296875,842.930419921875
1630415917549,772.0146484375,813.91943359375,816.3369750976562,806.6666870117188
1630415917549,831.2454223632812,815.1282348632812,819.96337890625,873.1502075195312
1630415917549,770.4029541015625,817.1428833007812,815.93408203125,793.3699340820312
1630415917549,805.4578857421875,817.1428833007812,812.7106323242188,809.4871826171875
1630415917549,795.7875366210938,815.93408203125,817.1428833007812,833.2600708007812
